Terminal: BA01     500  PARANAITA
Tensão base: 500 kV
SOC inicial: 1643124120
SOC final: 1643124179
Taxa: 1 fasores/s
Total de frames faltantes: - 

Tempo_(SOC)           VB_mod_(V)     VB_ang_(graus)     Frequência        Delta_Freq     Faltante
1643124120.0000    306136.400000      -129.902300        59.976310         0.006180
1643124121.0000    306305.000000      -139.050000        59.976340         0.000229
1643124122.0000    306086.300000      -148.401200        59.972540        -0.007553
1643124123.0000    306081.700000      -158.468700        59.972990         0.028610
1643124124.0000    305949.200000      -168.663200        59.971120         0.029068
1643124125.0000    305851.500000      -179.323200        59.967970        -0.034103
1643124126.0000    305822.100000       169.541500        59.970270         0.019455
1643124127.0000    305853.500000       157.758900        59.969040         0.022659
1643124128.0000    306167.300000       146.501700        59.969350         0.011444
1643124129.0000    305948.000000       135.122800        59.966910         0.027008
1643124130.0000    305930.300000       123.808500        59.967500        -0.026550
1643124131.0000    305915.300000       112.310600        59.968370         0.034561
1643124132.0000    306178.800000        99.934860        59.965460        -0.002289
1643124133.0000    306107.100000        86.979400        59.963090        -0.003433
1643124134.0000    306138.400000        73.437620        59.962560        -0.001602
1643124135.0000    306261.200000        59.097810        59.959140        -0.027924
1643124136.0000    306270.800000        44.624920        59.961230         0.025864
1643124137.0000    306257.800000        30.611160        59.961750         0.030212
1643124138.0000    306145.500000        17.277060        59.962570         0.065231
1643124139.0000    306215.600000         4.467296        59.963580        -0.032501
1643124140.0000    306144.800000        -8.100902        59.964580        -0.035934
1643124141.0000    306016.800000       -20.078440        59.966250        -0.041428
1643124142.0000    306010.200000       -31.863090        59.968280         0.005951
1643124143.0000    306048.700000       -43.048140        59.970910         0.016022
1643124144.0000    306182.000000       -53.659270        59.971440        -0.046234
1643124145.0000    306055.200000       -63.593410        59.971640        -0.028839
1643124146.0000    306103.600000       -73.214540        59.973200        -0.012589
1643124147.0000    305935.100000       -82.774610        59.971650        -0.004349
1643124148.0000    306183.700000       -92.305670        59.974810         0.027924
1643124149.0000    306298.800000      -101.370600        59.975670        -0.023346
1643124150.0000    306182.600000      -109.880000        59.977560         0.014420
1643124151.0000    306267.800000      -117.367800        59.979120         0.006180
1643124152.0000    306281.900000      -124.294600        59.981280        -0.038223
1643124153.0000    306034.800000      -130.679300        59.982510         0.005035
1643124154.0000    306275.300000      -136.672500        59.986970         0.015793
1643124155.0000    306165.300000      -141.696400        59.988750         0.072556
1643124156.0000    306152.600000      -146.020800        59.989640         0.016022
1643124157.0000    305957.300000      -149.747100        59.987450        -0.052185
1643124158.0000    306247.500000      -153.361200        59.991830         0.009613
1643124159.0000    306201.900000      -155.723000        59.993680        -0.003433
1643124160.0000    306186.900000      -157.481300        59.995420        -0.006180
1643124161.0000    306094.900000      -158.419500        59.996100        -0.045776
1643124162.0000    306062.900000      -158.934200        59.997490        -0.006180
1643124163.0000    306052.600000      -158.908900        60.001690        -0.009613
1643124164.0000    306060.700000      -159.001000        60.001060         0.020599
1643124165.0000    305980.600000      -158.999100        60.000510         0.004120
1643124166.0000    306062.500000      -159.322000        59.997170        -0.081482
1643124167.0000    305881.900000      -160.262800        59.994380        -0.052185
1643124168.0000    305995.100000      -161.687500        59.995740        -0.016251
1643124169.0000    305942.800000      -163.610400        59.993710         0.017395
1643124170.0000    306083.400000      -166.170800        59.992090        -0.032501
1643124171.0000    305987.300000      -169.260500        59.987200        -0.082626
1643124172.0000    306111.700000      -173.225900        59.987870         0.030441
1643124173.0000    306043.500000      -173.820000        59.988080         0.014648          *
1643124174.0000    306043.500000      -173.820000        59.988080         0.014648          *
1643124175.0000    306043.500000      -173.820000        59.988080         0.014648          *
1643124176.0000    306043.500000      -173.820000        59.988080         0.014648          *
1643124177.0000    306043.500000      -173.820000        59.988080         0.014648          *
1643124178.0000    306043.500000      -173.820000        59.988080         0.014648          *
1643124179.0000    306043.500000      -173.820000        59.988080         0.014648          *
