Terminal: BA1      500  RIO NOVO SUL
Tensão base: 500 kV
SOC inicial: 1643124120
SOC final: 1643124179
Taxa: 1 fasores/s
Total de frames faltantes: - 

Tempo_(SOC)           VB_mod_(V)     VB_ang_(graus)     Frequência        Delta_Freq     Faltante
1643124120.0000    308874.500000       163.199600        59.974370        -0.015335
1643124121.0000    308863.900000       154.158200        59.973040        -0.040512
1643124122.0000    308774.800000       144.631800        59.973260        -0.003891
1643124123.0000    308448.100000       134.514400        59.971230        -0.018082
1643124124.0000    308523.000000       124.243600        59.971310         0.018082
1643124125.0000    308322.900000       113.600200        59.968850        -0.019226
1643124126.0000    308566.500000       102.505400        59.967910         0.010986
1643124127.0000    308557.300000        90.885920        59.967650         0.013046
1643124128.0000    308631.800000        79.603810        59.970090         0.017166
1643124129.0000    308724.100000        68.266300        59.969600         0.006638
1643124130.0000    308713.900000        56.920680        59.968360         0.026321
1643124131.0000    308668.300000        45.438780        59.966670         0.002518
1643124132.0000    308475.000000        33.268940        59.964480        -0.036850
1643124133.0000    308797.000000        20.198800        59.963250         0.021286
1643124134.0000    308746.800000         6.584976        59.961870        -0.012131
1643124135.0000    308653.800000        -7.654503        59.959690         0.010986
1643124136.0000    308855.500000       -22.129100        59.960710        -0.009613
1643124137.0000    308748.200000       -35.896010        59.961840         0.016022          *
1643124138.0000    308766.800000       -49.490850        59.962890         0.006409
1643124139.0000    308649.500000       -62.290910        59.966210         0.041428
1643124140.0000    308537.000000       -74.957090        59.964620        -0.008698
1643124141.0000    308532.400000       -86.973490        59.968820         0.130920
1643124142.0000    308518.900000       -98.723030        59.965470        -0.073242
1643124143.0000    308447.200000      -109.878800        59.970100        -0.040283
1643124144.0000    308562.500000      -120.461100        59.972760         0.057678
1643124145.0000    308678.500000      -130.433900        59.973130        -0.055618
1643124146.0000    308605.100000      -140.112700        59.974800         0.031586
1643124147.0000    308481.800000      -149.606700        59.973320        -0.002060
1643124148.0000    308564.700000      -159.079100        59.975110         0.066376
1643124149.0000    308691.700000      -168.054000        59.976570         0.029755
1643124150.0000    308827.700000      -176.539400        59.979210         0.039597
1643124151.0000    308667.300000       175.815500        59.980500         0.017395
1643124152.0000    308596.500000       168.843600        59.981520        -0.010071
1643124153.0000    308565.300000       162.382700        59.982810         0.018997
1643124154.0000    308825.400000       156.514200        59.985480         0.010986
1643124155.0000    308716.500000       151.499300        59.986080         0.019684
1643124156.0000    308713.800000       147.113300        59.988960        -0.003662
1643124157.0000    308725.500000       143.296200        59.988700         0.021515
1643124158.0000    309165.800000       140.094300        59.992230        -0.005493
1643124159.0000    309069.800000       137.542700        59.994150         0.012589
1643124160.0000    308955.500000       135.832800        59.995960         0.016251
1643124161.0000    309108.700000       134.887200        59.998190         0.000458
1643124162.0000    309095.000000       134.385300        59.999010        -0.022430
1643124163.0000    309058.400000       134.444700        59.999650         0.010071
1643124164.0000    309105.500000       134.404300        59.999340         0.001373
1643124165.0000    309084.900000       134.325700        59.999520         0.032272
1643124166.0000    309053.000000       134.064900        59.997780         0.024261
1643124167.0000    309189.500000       133.248600        59.998520         0.017395
1643124168.0000    309106.100000       131.832200        59.995810        -0.021744
1643124169.0000    309173.800000       129.939000        59.993870        -0.013046
1643124170.0000    309152.100000       127.368400        59.991670         0.029526
1643124171.0000    309097.600000       124.368500        59.991040        -0.006409          *
1643124172.0000    309050.100000       120.369200        59.987640        -0.048294
1643124173.0000    309057.200000       115.626100        59.985290         0.006866
1643124174.0000    309038.700000       109.935400        59.981420        -0.057907
1643124175.0000    309049.000000       103.214300        59.981480         0.010757
1643124176.0000    309228.200000        95.913800        59.979970         0.030670
1643124177.0000    309172.000000        87.997710        59.978600         0.027695
1643124178.0000    309248.900000        80.105190        59.977810         0.007324
1643124179.0000    309180.000000        71.339870        59.974930         0.031128
