Terminal: BA1      500  ARINOS 2
Tensão base: 500 kV
SOC inicial: 1643124120
SOC final: 1643124179
Taxa: 1 fasores/s
Total de frames faltantes: - 

Tempo_(SOC)           VB_mod_(V)     VB_ang_(graus)     Frequência        Delta_Freq     Faltante
1643124120.0000    305601.500000      -160.176800        59.974910         0.097171
1643124121.0000    305580.700000      -169.205900        59.973450        -0.020939
1643124122.0000    305557.600000      -178.655900        59.973440        -0.070196
1643124123.0000    305516.800000       171.350500        59.971920        -0.085712
1643124124.0000    305601.700000       161.023200        59.970740        -0.034870
1643124125.0000    305511.900000       150.398200        59.969970        -0.012476
1643124126.0000    305499.500000       139.238400        59.968010        -0.066869
1643124127.0000    305523.200000       127.663300        59.967370         0.038376
1643124128.0000    305693.300000       116.276400        59.970650        -0.074606
1643124129.0000    305471.400000       105.084400        59.968410        -0.107994
1643124130.0000    305484.200000        93.600490        59.967560         0.064403
1643124131.0000    305399.700000        82.109830        59.966400        -0.093549
1643124132.0000    305276.900000        70.020120        59.965130        -0.157631
1643124133.0000    305365.700000        56.903840        59.963290        -0.100058
1643124134.0000    305432.700000        43.269590        59.962080        -0.097581
1643124135.0000    305322.800000        29.102120        59.959320        -0.039601
1643124136.0000    305496.300000        14.520500        59.960140         0.044200
1643124137.0000    305409.000000         0.617671        59.962810         0.060893
1643124138.0000    305296.200000       -12.639390        59.963740         0.001210
1643124139.0000    305407.700000       -25.510200        59.965200         0.044537
1643124140.0000    305269.700000       -37.946170        59.964820        -0.042969
1643124141.0000    305298.500000       -50.054650        59.967200         0.121701
1643124142.0000    305266.600000       -61.703260        59.967830        -0.043942
1643124143.0000    305341.600000       -72.922290        59.970520         0.025179
1643124144.0000    305344.300000       -83.463090        59.972110        -0.023344
1643124145.0000    305179.400000       -93.430580        59.970240        -0.032330
1643124146.0000    305278.800000      -103.104100        59.972560        -0.184977
1643124147.0000    305307.000000      -112.601800        59.973800        -0.106353
1643124148.0000    305392.300000      -122.118400        59.975160        -0.050504
1643124149.0000    305448.300000      -131.201400        59.976240        -0.017768
1643124150.0000    305504.900000      -139.766700        59.977130         0.022816
1643124151.0000    305580.600000      -147.387000        59.980400         0.016301
1643124152.0000    305420.600000      -154.225100        59.981430        -0.004933
1643124153.0000    305534.000000      -160.695900        59.982270        -0.077691
1643124154.0000    305681.800000      -166.756400        59.985180        -0.067573
1643124155.0000    305663.700000      -171.780200        59.988100         0.026308
1643124156.0000    305608.600000      -176.079700        59.988250        -0.080285
1643124157.0000    305512.600000      -179.821400        59.989240         0.027759
1643124158.0000    305656.000000       176.656900        59.991700        -0.029671
1643124159.0000    305740.500000       174.152400        59.993410         0.009934
1643124160.0000    305636.900000       172.537100        59.996650        -0.137505
1643124161.0000    305761.300000       171.471200        59.997930        -0.152050
1643124162.0000    305704.500000       171.035500        59.998340         0.004521
1643124163.0000    305670.400000       171.053800        59.999800        -0.121880
1643124164.0000    305702.900000       171.032600        60.000050        -0.051211
1643124165.0000    305820.800000       170.830000        60.002050         0.024180
1643124166.0000    305624.900000       170.689700        60.002040        -0.508997
1643124167.0000    305548.000000       169.793900        59.994360        -0.551616
1643124168.0000    305716.300000       168.199400        59.994940        -0.237537
1643124169.0000    305609.900000       166.394500        59.993750        -0.098093
1643124170.0000    305613.400000       163.775200        59.990880        -0.071791
1643124171.0000    305637.800000       160.676600        59.991550        -0.180929
1643124172.0000    305535.500000       156.804900        59.988190        -0.056012
1643124173.0000    305601.900000       151.993100        59.986220        -0.022878
1643124174.0000    305431.700000       146.352700        59.981690        -0.071798
1643124175.0000    305569.300000       139.603200        59.980830        -0.049647
1643124176.0000    305579.700000       132.101400        59.978870        -0.174742
1643124177.0000    305676.000000       124.115200        59.978980         0.031988
1643124178.0000    305637.300000       116.241300        59.978910        -0.015946
1643124179.0000    305484.900000       107.652600        59.974430        -0.124894
