Terminal: BA1      500  MARITUBA
Tensão base: 500 kV
SOC inicial: 1643124120
SOC final: 1643124179
Taxa: 1 fasores/s
Total de frames faltantes: - 

Tempo_(SOC)           VB_mod_(V)     VB_ang_(graus)     Frequência        Delta_Freq     Faltante
1643124120.0000    304552.900000      -134.609500        59.975520         0.019226
1643124121.0000    304531.500000      -143.609100        59.975080         0.012817
1643124122.0000    304436.600000      -152.980400        59.972930        -0.013733
1643124123.0000    304427.700000      -162.946100        59.972750         0.055618
1643124124.0000    304436.000000      -173.456600        59.971210        -0.014420
1643124125.0000    304397.600000       176.096500        59.970420         0.030899
1643124126.0000    304370.300000       164.924400        59.967930        -0.012131
1643124127.0000    304409.900000       153.352900        59.966630        -0.028610
1643124128.0000    304594.300000       141.692000        59.968190        -0.030212
1643124129.0000    304456.100000       130.739500        59.969430        -0.022430
1643124130.0000    304295.400000       119.278200        59.966800        -0.005722
1643124131.0000    304225.000000       107.812500        59.967210        -0.061798
1643124132.0000    304173.100000        95.969410        59.964450        -0.052414
1643124133.0000    304179.500000        82.773200        59.962640         0.011444
1643124134.0000    304279.500000        68.928770        59.959830        -0.064774
1643124135.0000    304336.400000        54.952960        59.960070        -0.010757
1643124136.0000    304363.400000        40.188540        59.959790        -0.006409
1643124137.0000    304534.000000        26.285720        59.963090        -0.008926
1643124138.0000    304449.100000        13.246930        59.963690         0.027008
1643124139.0000    304466.000000         0.331815        59.965660         0.032043
1643124140.0000    304371.800000       -12.026010        59.966400         0.015335
1643124141.0000    304403.800000       -24.187320        59.966430        -0.028839
1643124142.0000    304429.900000       -35.746630        59.968390         0.000229
1643124143.0000    304438.300000       -47.127090        59.969170        -0.003662
1643124144.0000    304417.500000       -57.711120        59.971080        -0.031815
1643124145.0000    304382.700000       -67.484730        59.972750        -0.018082
1643124146.0000    304438.000000       -77.217100        59.973610         0.014648
1643124147.0000    304449.500000       -86.612000        59.974630        -0.009155
1643124148.0000    304357.900000       -96.165010        59.972930        -0.007095
1643124149.0000    304488.800000      -105.439900        59.976550         0.014877
1643124150.0000    304588.300000      -113.937800        59.977460        -0.016251
1643124151.0000    304571.100000      -121.690800        59.980830        -0.003433
1643124152.0000    304478.300000      -128.345000        59.980730        -0.030441
1643124153.0000    304515.600000      -134.933900        59.983280         0.030212
1643124154.0000    304572.000000      -141.000300        59.983160        -0.011215
1643124155.0000    304638.500000      -146.064000        59.987990         0.032043
1643124156.0000    304473.200000      -150.323000        59.988430         0.001144
1643124157.0000    304504.700000      -154.000500        59.990850         0.024033
1643124158.0000    304492.700000      -157.615100        59.990800         0.022202
1643124159.0000    304668.700000      -160.300500        59.994650        -0.018997
1643124160.0000    304681.800000      -161.748500        59.996410        -0.032959
1643124161.0000    304756.000000      -162.879600        59.997570         0.019684
1643124162.0000    304823.300000      -163.298800        59.999870        -0.014420
1643124163.0000    304800.900000      -163.277400        60.001010        -0.006180
1643124164.0000    304695.100000      -163.202700        59.997940        -0.071182
1643124165.0000    304663.200000      -163.659400        59.998970         0.028152
1643124166.0000    304632.300000      -163.696100        60.000270         0.045319
1643124167.0000    304586.200000      -164.464000        59.995290         0.007095
1643124168.0000    304670.600000      -166.369600        59.993890        -0.006638
1643124169.0000    304786.900000      -168.213900        59.995300         0.009613
1643124170.0000    304639.300000      -170.717700        59.991720        -0.024948
1643124171.0000    304689.300000      -173.847000        59.990420        -0.003433
1643124172.0000    304578.300000      -177.650100        59.986960        -0.046005
1643124173.0000    304548.700000       177.492800        59.984570        -0.037537
1643124174.0000    304501.400000       171.932100        59.983370         0.028839
1643124175.0000    304537.900000       165.101800        59.979800         0.039368
1643124176.0000    304638.400000       157.546800        59.979720         0.015106
1643124177.0000    304721.300000       149.501700        59.977680        -0.001831
1643124178.0000    304721.300000       141.630300        59.979100         0.022202
1643124179.0000    304610.200000       133.324700        59.975030         0.002747
