Terminal: BA1      500  MUTUM
Tensão base: 500 kV
SOC inicial: 1643124120
SOC final: 1643124179
Taxa: 1 fasores/s
Total de frames faltantes: - 

Tempo_(SOC)           VB_mod_(V)     VB_ang_(graus)     Frequência        Delta_Freq     Faltante
1643124120.0000    305882.200000       163.822700        59.974080        -0.015106
1643124121.0000    305865.000000       154.787000        59.972980        -0.050812
1643124122.0000    305783.800000       145.260500        59.973890         0.015564
1643124123.0000    305470.500000       135.146400        59.970890        -0.033646
1643124124.0000    305550.700000       124.882100        59.971120         0.003433
1643124125.0000    305274.900000       114.240300        59.968430        -0.060883
1643124126.0000    305574.300000       103.142100        59.968240         0.014191
1643124127.0000    305572.900000        91.534210        59.967900         0.022888
1643124128.0000    305621.300000        80.246900        59.969970         0.011673
1643124129.0000    305674.800000        68.907740        59.969820         0.034561
1643124130.0000    305704.300000        57.550320        59.968420         0.034790
1643124131.0000    305645.500000        46.063130        59.966950         0.023575
1643124132.0000    305382.200000        33.910610        59.964270        -0.034790
1643124133.0000    305810.200000        20.827080        59.963320         0.024490
1643124134.0000    305756.400000         7.209642        59.962140        -0.016937
1643124135.0000    305633.800000        -7.033862        59.959680         0.008698
1643124136.0000    305886.900000       -21.502220        59.960420        -0.019226
1643124137.0000    305736.700000       -35.480780        59.962820         0.052872
1643124138.0000    305739.000000       -48.833040        59.963160         0.012360
1643124139.0000    305646.500000       -61.630290        59.966190         0.036621
1643124140.0000    305497.400000       -74.281160        59.964060        -0.028152
1643124141.0000    305467.900000       -86.301630        59.969980         0.202332
1643124142.0000    305471.300000       -98.040150        59.965510        -0.046463
1643124143.0000    305372.800000      -109.194600        59.969440        -0.086288
1643124144.0000    305499.600000      -119.620800        59.970950        -0.004807          *
1643124145.0000    305580.100000      -129.772500        59.973040        -0.051270
1643124146.0000    305496.600000      -139.458500        59.974520         0.024261
1643124147.0000    305406.100000      -148.945500        59.973340        -0.011673
1643124148.0000    305468.500000      -158.427000        59.975660         0.070953
1643124149.0000    305604.900000      -167.401300        59.976420         0.011902
1643124150.0000    305770.900000      -175.881400        59.979460         0.031357
1643124151.0000    305645.900000       176.487600        59.980670         0.019684
1643124152.0000    305531.800000       169.516000        59.981610         0.011673
1643124153.0000    305533.100000       163.059500        59.982810         0.023346
1643124154.0000    305830.700000       157.188700        59.985310         0.008011
1643124155.0000    305702.900000       152.173100        59.986360         0.027237
1643124156.0000    305723.200000       147.785900        59.988560         0.000229
1643124157.0000    305720.700000       143.974200        59.988350        -0.005722
1643124158.0000    306196.500000       140.742000        59.992410        -0.006638
1643124159.0000    306077.900000       138.198000        59.994290         0.025864
1643124160.0000    305945.600000       136.489500        59.995400        -0.020142
1643124161.0000    306141.900000       135.548300        59.998490         0.008011
1643124162.0000    306145.900000       135.064600        59.999130        -0.047836
1643124163.0000    306076.700000       135.114300        59.999640         0.003662
1643124164.0000    306130.300000       135.067600        59.999650         0.010986
1643124165.0000    306134.600000       134.967800        59.999240         0.035019
1643124166.0000    306059.000000       134.703700        59.997830         0.001602
1643124167.0000    306180.900000       133.884100        59.998510         0.013962
1643124168.0000    306118.500000       132.449300        59.995470        -0.024719
1643124169.0000    306164.700000       130.557600        59.994420        -0.004807
1643124170.0000    306163.100000       127.970300        59.991840         0.031357
1643124171.0000    306086.200000       124.906800        59.988210        -0.123367
1643124172.0000    306036.100000       120.973400        59.987340        -0.030441
1643124173.0000    306075.200000       116.230800        59.985550         0.002518
1643124174.0000    306047.400000       110.555500        59.981110        -0.061111
1643124175.0000    306112.400000       103.835600        59.981420        -0.010071
1643124176.0000    306283.800000        96.509720        59.979920         0.052414
1643124177.0000    306192.400000        88.592730        59.978570         0.030670
1643124178.0000    306316.500000        80.696350        59.977780         0.000916
1643124179.0000    306225.700000        71.941860        59.974760         0.034103
