Terminal: BA1      440  BAGUACU
Tensão base: 440 kV
SOC inicial: 1643124120
SOC final: 1643124179
Taxa: 1 fasores/s
Total de frames faltantes: - 

Tempo_(SOC)           VB_mod_(V)     VB_ang_(graus)     Frequência        Delta_Freq     Faltante
1643124120.0000    263321.600000       148.870900        59.974550        -0.006309
1643124121.0000    263332.300000       139.783200        59.974490        -0.055032
1643124122.0000    263276.200000       130.329500        59.972970        -0.044456
1643124123.0000    263425.800000       120.313600        59.972570        -0.007224
1643124124.0000    263412.500000       110.121900        59.971900         0.020738
1643124125.0000    263345.800000        99.406390        59.969870         0.002588
1643124126.0000    263345.400000        88.210150        59.968480         0.011583
1643124127.0000    263373.500000        76.619030        59.968030        -0.011268
1643124128.0000    263329.900000        65.385570        59.968610        -0.100604
1643124129.0000    263428.800000        53.914670        59.969480         0.050427
1643124130.0000    263476.700000        42.534740        59.970480        -0.069794
1643124131.0000    263243.100000        30.961100        59.964620        -0.098462
1643124132.0000    263296.100000        18.648480        59.965350         0.023520
1643124133.0000    263385.800000         5.709167        59.963850         0.033799
1643124134.0000    263294.100000        -7.837903        59.960740         0.044313
1643124135.0000    263358.100000       -22.146080        59.960080         0.029725
1643124136.0000    263302.200000       -36.595190        59.960830        -0.098532
1643124137.0000    263326.400000       -50.652260        59.962040        -0.003497
1643124138.0000    263382.500000       -64.065400        59.964140        -0.041603
1643124139.0000    263394.600000       -76.829050        59.966140         0.033265
1643124140.0000    263353.500000       -89.403480        59.966930        -0.028762
1643124141.0000    263313.800000      -101.429400        59.967260         0.082212
1643124142.0000    263322.100000      -113.181100        59.968280         0.030809
1643124143.0000    263379.600000      -124.350100        59.970140        -0.006828
1643124144.0000    263322.800000      -134.863300        59.971640         0.084724
1643124145.0000    263260.100000      -144.957400        59.972780         0.061725
1643124146.0000    263168.200000      -154.635600        59.973310         0.182957
1643124147.0000    263330.100000      -164.192800        59.973880        -0.017574
1643124148.0000    263227.000000      -173.629000        59.975680        -0.019885
1643124149.0000    263279.000000       177.344600        59.975720         0.007260
1643124150.0000    263373.200000       168.838500        59.977890         0.030956
1643124151.0000    263404.100000       161.326400        59.980750         0.019103
1643124152.0000    263373.500000       154.338600        59.982010        -0.012668
1643124153.0000    263354.800000       147.940800        59.982770         0.009363
1643124154.0000    263348.600000       142.007000        59.984600         0.006362
1643124155.0000    263369.300000       136.953400        59.987350        -0.015403
1643124156.0000    263384.900000       132.728600        59.988690         0.027917
1643124157.0000    263372.800000       128.841900        59.990330         0.012818
1643124158.0000    263359.300000       125.410500        59.992260        -0.036482
1643124159.0000    263420.800000       123.031200        59.994960         0.020331
1643124160.0000    263407.800000       121.236800        59.996720         0.039806
1643124161.0000    263301.400000       120.339000        59.998050         0.004116
1643124162.0000    263313.300000       119.786100        59.999220        -0.033833
1643124163.0000    263226.300000       119.718000        60.000360        -0.010945
1643124164.0000    263297.200000       119.672400        60.000310         0.014971
1643124165.0000    263345.300000       119.671100        59.999780        -0.005720
1643124166.0000    263303.800000       119.305900        59.998210         0.018412
1643124167.0000    263313.700000       118.327500        59.997700        -0.012928
1643124168.0000    263377.100000       117.119700        59.996190        -0.032058
1643124169.0000    263326.200000       115.210800        59.993820         0.081076
1643124170.0000    263251.200000       112.637600        59.991530         0.008983
1643124171.0000    263247.900000       109.444900        59.990330        -0.024599
1643124172.0000    263306.300000       105.515300        59.988800         0.084030
1643124173.0000    263248.700000       100.775300        59.985220         0.017326
1643124174.0000    263230.000000        94.876740        59.981740         0.053718
1643124175.0000    263268.300000        88.265570        59.981210        -0.065741
1643124176.0000    263210.800000        80.765420        59.978840        -0.116081
1643124177.0000    263279.400000        72.977540        59.977970         0.035260
1643124178.0000    263280.300000        64.995780        59.978220         0.028481
1643124179.0000    263300.500000        56.243520        59.974930         0.049215
