Terminal: BA2220   500  TIANGUA II
Tensão base: 500 kV
SOC inicial: 1643124120
SOC final: 1643124179
Taxa: 1 fasores/s
Total de frames faltantes: - 

Tempo_(SOC)           VB_mod_(V)     VB_ang_(graus)     Frequência        Delta_Freq     Faltante
1643124120.0000    313222.900000      -142.568900        59.975170        -0.009155
1643124121.0000    313191.700000      -151.591200        59.973360        -0.034332
1643124122.0000    313192.900000      -161.016100        59.973500         0.006180
1643124123.0000    313242.900000      -171.004400        59.971200         0.002747
1643124124.0000    313237.600000       178.607700        59.971470         0.000687
1643124125.0000    313092.300000       168.044900        59.969860        -0.017624
1643124126.0000    313139.000000       156.865300        59.968640         0.014191
1643124127.0000    313139.000000       145.298700        59.966260        -0.011215
1643124128.0000    313160.700000       133.772700        59.969380         0.010300
1643124129.0000    313172.400000       122.694900        59.969210        -0.010300
1643124130.0000    313118.400000       111.223600        59.967140        -0.021057
1643124131.0000    313162.900000        99.718310        59.967700        -0.033188
1643124132.0000    313147.300000        87.737640        59.965720         0.012131
1643124133.0000    313120.400000        74.562840        59.962410         0.021515
1643124134.0000    313074.200000        60.859630        59.961750         0.004807
1643124135.0000    313061.600000        46.771570        59.960300         0.032959
1643124136.0000    313138.900000        32.120080        59.960490         0.008011
1643124137.0000    313164.700000        18.285630        59.962190        -0.011215
1643124138.0000    313111.500000         5.111265        59.963940        -0.006180
1643124139.0000    313118.100000        -7.804338        59.964320        -0.023117
1643124140.0000    313077.600000       -20.161820        59.964890        -0.032043
1643124141.0000    313137.800000       -32.313340        59.966220        -0.062714
1643124142.0000    313195.500000       -43.919010        59.968330         0.016022
1643124143.0000    313126.800000       -55.211950        59.969890         0.007553
1643124144.0000    313151.900000       -65.757010        59.972150         0.037766
1643124145.0000    313180.500000       -75.633460        59.972640        -0.046005
1643124146.0000    313163.600000       -85.312850        59.973460        -0.015564
1643124147.0000    313106.900000       -94.763270        59.974670         0.055161
1643124148.0000    313164.100000      -104.312500        59.973390        -0.007324
1643124149.0000    313110.700000      -113.463200        59.975810        -0.006866
1643124150.0000    313156.900000      -122.012700        59.976800        -0.040054
1643124151.0000    313279.200000      -129.718300        59.979850        -0.038681
1643124152.0000    313183.900000      -136.495800        59.981820         0.001144
1643124153.0000    313173.800000      -142.993400        59.982690         0.030212
1643124154.0000    313254.400000      -149.064000        59.984700         0.033875
1643124155.0000    313284.600000      -154.102100        59.987950         0.053101
1643124156.0000    313193.100000      -158.378000        59.989320         0.018539
1643124157.0000    313188.800000      -162.086400        59.989810        -0.018082
1643124158.0000    313239.200000      -165.668900        59.991020        -0.007324
1643124159.0000    313185.500000      -168.260000        59.994270         0.002289
1643124160.0000    313214.400000      -169.777500        59.997970         0.028381
1643124161.0000    313277.400000      -170.875900        59.998630         0.025406
1643124162.0000    313257.400000      -171.233600        59.999560        -0.020828
1643124163.0000    313246.400000      -171.228300        60.001400        -0.015793
1643124164.0000    313255.300000      -171.223900        59.999720         0.001144
1643124165.0000    313320.600000      -171.530900        59.998520        -0.000458
1643124166.0000    313209.300000      -171.631400        60.001010         0.080109
1643124167.0000    313202.800000      -172.459200        59.996210         0.044174
1643124168.0000    313233.300000      -174.232900        59.994930         0.001602
1643124169.0000    313211.500000      -176.022000        59.995460         0.039597
1643124170.0000    313174.300000      -178.616700        59.991950        -0.037308
1643124171.0000    313233.000000       178.301100        59.991570         0.064316
1643124172.0000    313082.300000       174.522300        59.986710        -0.052414
1643124173.0000    313180.700000       169.622100        59.985590         0.023804
1643124174.0000    313305.300000       164.041100        59.983450         0.000229
1643124175.0000    313182.900000       157.243900        59.978730        -0.016479
1643124176.0000    313134.100000       149.737100        59.979290         0.025635
1643124177.0000    313243.100000       141.731800        59.976680        -0.014877
1643124178.0000    313220.300000       133.859900        59.978040         0.018997
1643124179.0000    313112.800000       125.400400        59.975000         0.026779
