Terminal: BAA      525  ITA
Tensão base: 525 kV
SOC inicial: 1643124120
SOC final: 1643124179
Taxa: 1 fasores/s
Total de frames faltantes: - 

Tempo_(SOC)           VA_mod_(V)     VA_ang_(graus)     Frequência        Delta_Freq     Faltante
1643124120.0000    308705.900000      -125.827900        59.975130        -0.011902
1643124121.0000    308635.500000      -134.950500        59.974140        -0.040054
1643124122.0000    308651.700000      -144.393100        59.973400         0.063400
1643124123.0000    308658.500000      -154.303400        59.972140         0.022659
1643124124.0000    308733.200000      -164.489700        59.971740         0.025864
1643124125.0000    308742.600000      -175.202600        59.971440         0.098877
1643124126.0000    308686.700000       173.549400        59.967540        -0.011215
1643124127.0000    308594.500000       161.907800        59.967450         0.036621
1643124128.0000    308730.300000       150.765500        59.968860        -0.007095
1643124129.0000    308740.000000       139.174000        59.968230         0.010757
1643124130.0000    308774.000000       127.914900        59.968510         0.014420
1643124131.0000    308566.600000       116.269500        59.967530         0.045776
1643124132.0000    308582.500000       103.963900        59.966140         0.017853
1643124133.0000    308607.300000        91.020660        59.962020        -0.097275
1643124134.0000    308589.200000        77.481110        59.961130        -0.025406
1643124135.0000    308723.900000        63.223300        59.960070        -0.012131
1643124136.0000    308669.700000        48.725640        59.959370        -0.037766
1643124137.0000    308768.300000        34.660810        59.961460        -0.000458
1643124138.0000    308824.200000        21.217310        59.964250         0.002747
1643124139.0000    308598.300000         8.497425        59.965050         0.012131
1643124140.0000    308638.300000        -4.105642        59.966470         0.044632
1643124141.0000    308689.600000       -16.127790        59.967740         0.028610
1643124142.0000    308608.600000       -27.905130        59.967820         0.046921
1643124143.0000    308673.500000       -39.038380        59.969250        -0.008926
1643124144.0000    308798.800000       -49.534370        59.971310        -0.002518
1643124145.0000    308698.100000       -59.705280        59.972420        -0.008926
1643124146.0000    308689.600000       -69.350710        59.974860         0.056992
1643124147.0000    308814.500000       -78.896020        59.973360        -0.002289
1643124148.0000    308730.800000       -88.265000        59.973980        -0.059738
1643124149.0000    308763.200000       -97.314060        59.975620         0.000916
1643124150.0000    308791.300000      -105.883800        59.977460         0.007553
1643124151.0000    308592.100000      -113.429900        59.979500        -0.014648
1643124152.0000    308747.000000      -120.367400        59.981540        -0.008240
1643124153.0000    308776.200000      -126.778100        59.983350         0.021973
1643124154.0000    308734.100000      -132.596000        59.985800         0.033875
1643124155.0000    308648.800000      -137.760300        59.988510         0.039139
1643124156.0000    308593.700000      -141.836000        59.987910        -0.015335
1643124157.0000    308767.400000      -145.777500        59.990960         0.037994
1643124158.0000    308767.400000      -149.208800        59.992210         0.028152
1643124159.0000    308610.200000      -151.615100        59.993570        -0.019913
1643124160.0000    308729.700000      -153.396700        59.997310        -0.005493
1643124161.0000    308641.100000      -154.285500        59.997020        -0.058365
1643124162.0000    308588.100000      -154.903600        59.997350        -0.087891
1643124163.0000    308558.900000      -155.015100        60.000600        -0.004578
1643124164.0000    308628.300000      -154.980900        60.001240         0.012589
1643124165.0000    308687.500000      -154.949900        59.999180        -0.006180
1643124166.0000    308543.500000      -155.382900        59.997290        -0.051498
1643124167.0000    308525.800000      -156.361400        59.999090         0.061111
1643124168.0000    308549.400000      -157.466900        59.994220        -0.044403
1643124169.0000    308459.700000      -159.497000        59.993860         0.012131
1643124170.0000    308509.700000      -161.982400        59.992040         0.031357
1643124171.0000    308632.100000      -165.196900        59.990830         0.036392
1643124172.0000    308546.400000      -169.160800        59.987660         0.002975
1643124173.0000    308659.100000      -173.871800        59.986160        -0.004578
1643124174.0000    308538.800000      -179.815600        59.981820        -0.048752
1643124175.0000    308629.200000       173.568700        59.980190        -0.015106
1643124176.0000    308679.300000       166.105600        59.977970        -0.008698
1643124177.0000    308586.800000       158.337100        59.977460        -0.078506
1643124178.0000    308565.800000       150.327400        59.977730         0.069122
1643124179.0000    308660.000000       141.554700        59.975420         0.004807
