Terminal: BAA      525  NOVA STA RITA
Tensão base: 525 kV
SOC inicial: 1643124120
SOC final: 1643124179
Taxa: 1 fasores/s
Total de frames faltantes: - 

Tempo_(SOC)           VA_mod_(V)     VA_ang_(graus)     Frequência        Delta_Freq     Faltante
1643124120.0000    311864.700000      -137.800100        59.975310         0.004807
1643124121.0000    311766.400000      -146.939400        59.972920        -0.117874
1643124122.0000    311849.500000      -156.381500        59.973790         0.096588
1643124123.0000    311812.300000      -166.286200        59.971140         0.010300
1643124124.0000    311958.800000      -176.458400        59.973420         0.078049
1643124125.0000    311955.100000       172.836100        59.973910         0.208283
1643124126.0000    311859.300000       161.571300        59.967320         0.017166
1643124127.0000    311678.800000       149.910600        59.967710         0.105515
1643124128.0000    311947.600000       138.797300        59.969780         0.000687
1643124129.0000    311988.400000       127.190200        59.968930        -0.036392
1643124130.0000    311981.300000       115.933900        59.969010         0.066605
1643124131.0000    311711.200000       104.263800        59.967780         0.067291
1643124132.0000    311735.600000        91.967640        59.966640         0.032272
1643124133.0000    311834.500000        79.017520        59.961560        -0.099792
1643124134.0000    311813.800000        65.488250        59.961600        -0.080338
1643124135.0000    311978.600000        51.234060        59.960020        -0.009842
1643124136.0000    311915.200000        36.728870        59.958510        -0.052643
1643124137.0000    311971.000000        22.672960        59.961380        -0.013046
1643124138.0000    312081.200000         9.226785        59.965030         0.018768
1643124139.0000    311732.800000        -3.500022        59.965800         0.059738
1643124140.0000    311766.500000       -16.113370        59.966620         0.055847
1643124141.0000    311906.400000       -28.126050        59.968080         0.064774
1643124142.0000    311784.500000       -39.914400        59.968180         0.092697
1643124143.0000    311770.500000       -51.040860        59.969390         0.048981
1643124144.0000    312002.900000       -61.520490        59.971500        -0.025864
1643124145.0000    311879.800000       -71.703300        59.971890        -0.024948
1643124146.0000    311840.800000       -81.357830        59.974620         0.024948
1643124147.0000    312090.700000       -90.865620        59.972580        -0.056305
1643124148.0000    311939.200000      -100.244100        59.973790        -0.052414
1643124149.0000    311992.800000      -109.284700        59.975060        -0.040741
1643124150.0000    312012.800000      -117.870500        59.977660        -0.015106
1643124151.0000    311645.300000      -125.461900        59.980050        -0.005035
1643124152.0000    311911.300000      -132.378300        59.981560         0.024033
1643124153.0000    312096.600000      -138.751200        59.983130        -0.008469
1643124154.0000    312027.400000      -144.570800        59.985320         0.008011
1643124155.0000    311766.100000      -149.779400        59.988570        -0.017395
1643124156.0000    311649.100000      -153.869400        59.988810         0.055618
1643124157.0000    312026.300000      -157.769900        59.991490         0.013733
1643124158.0000    312049.900000      -161.197300        59.992830         0.072784
1643124159.0000    311812.800000      -163.622900        59.994480        -0.010071
1643124160.0000    311991.100000      -165.402000        59.997310        -0.070953
1643124161.0000    311893.000000      -166.286700        59.996010        -0.067291
1643124162.0000    311763.500000      -166.938700        59.996860        -0.083313
1643124163.0000    311794.500000      -167.061700        60.001210        -0.038681
1643124164.0000    311849.500000      -167.006300        60.001630        -0.041885
1643124165.0000    311985.900000      -166.942800        59.998990        -0.010757
1643124166.0000    311716.600000      -167.401600        59.996220        -0.090637
1643124167.0000    311588.400000      -168.352600        60.001060         0.164795
1643124168.0000    311693.800000      -169.463100        59.993590         0.012131
1643124169.0000    311517.700000      -171.540200        59.993500         0.018311
1643124170.0000    311667.100000      -174.004000        59.992600         0.058823
1643124171.0000    311935.800000      -177.161200        59.990740        -0.002975
1643124172.0000    311763.300000       178.829600        59.987070        -0.011444
1643124173.0000    311985.800000       174.164900        59.986660         0.006409
1643124174.0000    311662.800000       168.216400        59.981460        -0.086060
1643124175.0000    311877.500000       161.597500        59.979570        -0.059509
1643124176.0000    311997.000000       154.155300        59.978800         0.010300
1643124177.0000    311738.500000       146.360700        59.977330        -0.081253
1643124178.0000    311758.900000       138.325600        59.977830         0.092239
1643124179.0000    311979.700000       129.594400        59.974690        -0.040512
