Terminal: BAA      500  IBIUNA
Tensão base: 500 kV
SOC inicial: 1643124120
SOC final: 1643124179
Taxa: 1 fasores/s
Total de frames faltantes: - 

Tempo_(SOC)           VB_mod_(V)     VB_ang_(graus)     Frequência        Delta_Freq     Faltante
1643124120.0000    311984.400000       126.024500        59.973860         0.160812
1643124121.0000    312037.900000       116.964200        59.975030         0.045817
1643124122.0000    311914.800000       107.485400        59.972710        -0.200308
1643124123.0000    312223.100000        97.537270        59.972420        -0.082265
1643124124.0000    312175.500000        87.344040        59.972530         0.129047
1643124125.0000    312058.000000        76.612260        59.971390         0.074497
1643124126.0000    312045.400000        65.393460        59.968490         0.025612
1643124127.0000    311993.100000        53.828470        59.964410        -0.213845
1643124128.0000    311957.000000        42.603340        59.966110        -0.363279
1643124129.0000    312083.800000        31.094630        59.968880         0.164904
1643124130.0000    312298.700000        19.800700        59.973450         0.264147
1643124131.0000    311827.300000         8.143934        59.962530        -0.436861
1643124132.0000    311844.400000        -4.177267        59.963200         0.152145
1643124133.0000    312018.400000       -17.073800        59.962920        -0.236338
1643124134.0000    311851.400000       -30.652840        59.958150         0.199961
1643124135.0000    312104.600000       -44.916680        59.959260         0.034941
1643124136.0000    312043.400000       -59.349270        59.961980        -0.135234
1643124137.0000    311884.600000       -73.423420        59.957450        -0.386341
1643124138.0000    312141.300000       -86.841870        59.965990         0.054977
1643124139.0000    311932.700000       -99.631060        59.967800         0.213763
1643124140.0000    312038.300000      -112.191200        59.968640         0.181285
1643124141.0000    311775.200000      -124.250000        59.966880         0.171870
1643124142.0000    311918.900000      -135.997100        59.966870        -0.127117
1643124143.0000    312081.100000      -147.140100        59.971410         0.071766
1643124144.0000    312084.700000      -157.642200        59.971280         0.161959
1643124145.0000    311817.300000      -167.769500        59.973200         0.001109
1643124146.0000    311653.800000      -177.456600        59.973130         0.234980
1643124147.0000    311986.700000       172.987500        59.973190         0.044741
1643124148.0000    311779.500000       163.564200        59.976390         0.094739
1643124149.0000    311862.800000       154.531700        59.977050         0.222566
1643124150.0000    311940.000000       146.027200        59.978830         0.077918
1643124151.0000    312025.800000       138.517100        59.982490         0.079571
1643124152.0000    312134.600000       131.542600        59.982250        -0.010556
1643124153.0000    312023.000000       125.109000        59.983380        -0.139011
1643124154.0000    311914.800000       119.223100        59.981610        -0.154795
1643124155.0000    312024.500000       114.168100        59.987210        -0.029875
1643124156.0000    312120.200000       109.997700        59.986480        -0.150256
1643124157.0000    312136.200000       106.076500        59.990830         0.070418
1643124158.0000    312052.100000       102.663800        59.991490        -0.189215
1643124159.0000    311917.400000       100.271200        59.996460         0.127574
1643124160.0000    312097.600000        98.465690        59.996700         0.102979
1643124161.0000    311896.100000        97.532590        59.998330        -0.079870
1643124162.0000    311840.400000        96.984000        59.999040        -0.057966
1643124163.0000    311544.100000        96.851880        59.999320        -0.020885
1643124164.0000    311879.800000        96.867840        60.001860         0.373659
1643124165.0000    311928.900000        96.882450        60.000220        -0.128279
1643124166.0000    311715.000000        96.481150        59.996220        -0.094196
1643124167.0000    311843.600000        95.492870        59.998380         0.092833
1643124168.0000    312058.700000        94.335630        59.996270         0.071989
1643124169.0000    311841.200000        92.403450        59.994180         0.153838
1643124170.0000    311865.500000        89.858930        59.990120        -0.049137
1643124171.0000    311832.800000        86.621990        59.989560         0.033945
1643124172.0000    311817.300000        82.685810        59.988460         0.186120
1643124173.0000    311795.100000        77.919130        59.983280        -0.157851
1643124174.0000    311647.600000        71.991000        59.979350        -0.084920
1643124175.0000    311758.600000        65.409150        59.981360         0.046539
1643124176.0000    311621.000000        57.934130        59.977830        -0.341476
1643124177.0000    311842.800000        50.154600        59.976800        -0.010890
1643124178.0000    311626.900000        42.137900        59.979670         0.347916
1643124179.0000    311743.200000        33.367210        59.975180         0.089613
