Terminal: BAA      500  JANAUBA 3
Tensão base: 500 kV
SOC inicial: 1643124120
SOC final: 1643124179
Taxa: 1 fasores/s
Total de frames faltantes: - 

Tempo_(SOC)           VB_mod_(V)     VB_ang_(graus)     Frequência        Delta_Freq     Faltante
1643124120.0000    310183.600000       -40.444950        59.975290         0.014877
1643124121.0000    310171.700000       -49.479600        59.973230        -0.019226
1643124122.0000    310114.700000       -58.930710        59.973430         0.038910
1643124123.0000    310086.800000       -68.919500        59.972030        -0.004349
1643124124.0000    310148.000000       -79.246070        59.971030        -0.006638
1643124125.0000    310040.500000       -89.879100        59.970000         0.037308
1643124126.0000    310076.300000      -101.028600        59.967920        -0.030212
1643124127.0000    310067.700000      -112.606800        59.967540         0.016251
1643124128.0000    310216.100000      -123.996900        59.970730         0.082397
1643124129.0000    310040.800000      -135.181400        59.968430        -0.015564
1643124130.0000    310078.100000      -146.667700        59.967400         0.012360
1643124131.0000    309986.500000      -158.156400        59.965400        -0.116730
1643124132.0000    309956.400000      -170.249100        59.965170        -0.011444
1643124133.0000    310008.100000       176.643100        59.963830         0.054016
1643124134.0000    310046.300000       163.012400        59.962720         0.035019
1643124135.0000    309987.000000       148.845600        59.959400         0.000229
1643124136.0000    310075.600000       134.987400        59.960650         0.041428          *
1643124137.0000    310012.000000       120.370600        59.962320         0.035934
1643124138.0000    309925.900000       107.107100        59.963220         0.002747
1643124139.0000    310006.200000        94.228870        59.964950         0.063171
1643124140.0000    309934.100000        81.794430        59.964820        -0.005264
1643124141.0000    309945.200000        69.687400        59.966540         0.038452
1643124142.0000    309902.400000        58.035220        59.967910         0.003204
1643124143.0000    309953.100000        46.827560        59.971260         0.048752
1643124144.0000    309958.000000        36.267090        59.971560         0.000916
1643124145.0000    309843.700000        26.309220        59.970830        -0.092011
1643124146.0000    309872.200000        16.637190        59.972690        -0.024948
1643124147.0000    309882.100000         7.157576        59.973900         0.006180
1643124148.0000    309919.800000        -2.356738        59.975420         0.068665
1643124149.0000    309965.600000       -11.435530        59.976060         0.029984
1643124150.0000    310036.900000       -20.008380        59.976780         0.005493
1643124151.0000    310084.800000       -27.620240        59.980240         0.026550
1643124152.0000    310014.200000       -34.462910        59.981980        -0.007782
1643124153.0000    310094.000000       -40.944970        59.982590         0.022202
1643124154.0000    310193.800000       -47.000680        59.985740         0.063400
1643124155.0000    310214.300000       -52.020080        59.987320         0.027695
1643124156.0000    310167.700000       -56.318910        59.988510        -0.052872
1643124157.0000    310105.600000       -60.059030        59.989460        -0.010529
1643124158.0000    310229.800000       -63.580560        59.991680        -0.008698
1643124159.0000    310265.400000       -66.087730        59.992950        -0.018539
1643124160.0000    310228.000000       -67.693570        59.997040         0.013504
1643124161.0000    310338.800000       -68.773740        59.998320         0.038452
1643124162.0000    310317.100000       -69.189600        59.999330         0.001373
1643124163.0000    310271.400000       -69.175460        60.000660        -0.037308
1643124164.0000    310280.400000       -69.196590        60.000890         0.047607
1643124165.0000    310338.000000       -69.402060        60.001530         0.110092
1643124166.0000    310161.800000       -69.563710        59.999390        -0.010071
1643124167.0000    310201.800000       -70.456640        59.997790         0.026779
1643124168.0000    310283.100000       -72.059330        59.995410         0.005264
1643124169.0000    310212.300000       -73.856290        59.994090        -0.010071
1643124170.0000    310235.000000       -76.487290        59.990730        -0.084229
1643124171.0000    310220.500000       -79.579480        59.991090         0.016251
1643124172.0000    310182.800000       -83.453100        59.988090         0.029984
1643124173.0000    310243.800000       -88.264170        59.986400         0.045547
1643124174.0000    310082.900000       -93.899500        59.981420        -0.108261
1643124175.0000    310209.400000      -100.650200        59.981290         0.085373
1643124176.0000    310224.400000      -108.153500        59.979360         0.018539
1643124177.0000    310263.500000      -116.148800        59.978730         0.073700
1643124178.0000    310232.500000      -124.020300        59.978650         0.066605
1643124179.0000    310141.200000      -132.621200        59.973790        -0.021286
