Terminal: BAA1      525  ITA
Tensão base: 525 kV
SOC inicial: 1643124120
SOC final: 1643124179
Taxa: 1 fasores/s
Total de frames faltantes: - 

Tempo_(SOC)           VA_mod_(V)     VA_ang_(graus)     Frequência        Delta_Freq     Faltante
1643124120.0000    309159.500000      -125.831700        59.975230        -0.002289
1643124121.0000    309072.600000      -134.959700        59.973910        -0.047836
1643124122.0000    309097.500000      -144.397800        59.973220         0.064774
1643124123.0000    309087.800000      -154.308300        59.971810        -0.003891
1643124124.0000    309173.000000      -164.494000        59.972190         0.042114
1643124125.0000    309163.300000      -175.208200        59.971730         0.133438
1643124126.0000    309122.400000       173.545300        59.967870        -0.009384
1643124127.0000    309021.600000       161.904500        59.967880         0.052414
1643124128.0000    309186.200000       150.761900        59.968880        -0.005722
1643124129.0000    309182.500000       139.170200        59.968580         0.004120
1643124130.0000    309220.100000       127.910500        59.969050         0.041885
1643124131.0000    309011.300000       116.263400        59.966910         0.029297
1643124132.0000    309037.500000       103.956500        59.966000         0.024261
1643124133.0000    309062.300000        91.013950        59.962330        -0.077591
1643124134.0000    309049.100000        77.478100        59.961560        -0.014648
1643124135.0000    309185.300000        63.216110        59.959940        -0.015564
1643124136.0000    309129.300000        48.719930        59.959270        -0.025635
1643124137.0000    309211.700000        34.657330        59.961400        -0.012817
1643124138.0000    309263.600000        21.212970        59.964330        -0.002975
1643124139.0000    309031.400000         8.494060        59.965620         0.036163
1643124140.0000    309093.300000        -4.108787        59.966380         0.036850
1643124141.0000    309133.200000       -16.132050        59.967940         0.029755
1643124142.0000    309041.800000       -27.911360        59.967490         0.028381
1643124143.0000    309114.200000       -39.042520        59.969460         0.007095
1643124144.0000    309226.300000       -49.536750        59.971380        -0.009384
1643124145.0000    309143.800000       -59.714870        59.972220        -0.004349
1643124146.0000    309112.300000       -69.354390        59.974880         0.061111
1643124147.0000    309246.100000       -78.902710        59.973210        -0.018539
1643124148.0000    309174.700000       -88.272770        59.974130        -0.036392
1643124149.0000    309190.400000       -97.318970        59.975660        -0.002518
1643124150.0000    309231.300000      -105.888000        59.977640         0.005722
1643124151.0000    309045.500000      -113.435500        59.980170         0.021286
1643124152.0000    309190.800000      -120.371100        59.981130        -0.025177
1643124153.0000    309230.100000      -126.782600        59.983270         0.008469
1643124154.0000    309183.200000      -132.602900        59.985150         0.007095
1643124155.0000    309081.600000      -137.762700        59.988520         0.029755
1643124156.0000    309030.800000      -141.840700        59.988420         0.008926
1643124157.0000    309224.100000      -145.782000        59.990700         0.011902
1643124158.0000    309203.400000      -149.214200        59.992190         0.018082
1643124159.0000    309066.100000      -151.621100        59.993910         0.006638
1643124160.0000    309186.600000      -153.401200        59.997310        -0.019455
1643124161.0000    309097.300000      -154.290100        59.997430        -0.035248
1643124162.0000    309016.900000      -154.910500        59.997530        -0.056992
1643124163.0000    309006.900000      -155.017600        60.001390         0.027237
1643124164.0000    309053.900000      -154.987900        60.001180         0.013504
1643124165.0000    309129.300000      -154.955600        59.998800        -0.015793
1643124166.0000    308974.700000      -155.388900        59.997120        -0.055618
1643124167.0000    308943.800000      -156.368300        59.999730         0.102768
1643124168.0000    308992.300000      -157.471300        59.994650        -0.017853
1643124169.0000    308904.300000      -159.503000        59.994010         0.035934
1643124170.0000    308974.300000      -161.986700        59.992020         0.032043
1643124171.0000    309088.300000      -165.201400        59.990750         0.019226
1643124172.0000    309017.900000      -169.164400        59.987740         0.003433
1643124173.0000    309119.800000      -173.878800        59.986460         0.016251
1643124174.0000    308956.700000      -179.821600        59.982220        -0.027924
1643124175.0000    309073.900000       173.565400        59.979930        -0.042114
1643124176.0000    309097.500000       166.104400        59.978140        -0.011215
1643124177.0000    309027.600000       158.332900        59.977880        -0.056992
1643124178.0000    309014.800000       150.323100        59.977180         0.038910
1643124179.0000    309106.100000       141.549400        59.975330        -0.002518
