Terminal: BAA1      525  NOVA STA RITA
Tensão base: 525 kV
SOC inicial: 1643124120
SOC final: 1643124179
Taxa: 1 fasores/s
Total de frames faltantes: - 

Tempo_(SOC)           VA_mod_(V)     VA_ang_(graus)     Frequência        Delta_Freq     Faltante
1643124120.0000    312157.400000      -137.806400        59.975090        -0.005264
1643124121.0000    312082.600000      -146.948300        59.972770        -0.117874
1643124122.0000    312144.500000      -156.389300        59.974030         0.106430
1643124123.0000    312107.900000      -166.294700        59.971260         0.021744
1643124124.0000    312267.200000      -176.466800        59.973510         0.081711
1643124125.0000    312251.800000       172.826500        59.973640         0.197754
1643124126.0000    312158.200000       161.562800        59.967540         0.035019
1643124127.0000    311994.400000       149.901200        59.967210         0.093613
1643124128.0000    312246.100000       138.789200        59.969550        -0.008469
1643124129.0000    312294.500000       127.179900        59.968700        -0.044861
1643124130.0000    312274.300000       115.924400        59.968710         0.061569
1643124131.0000    312016.300000       104.257300        59.967470         0.039139
1643124132.0000    312050.400000        91.959850        59.967030         0.041885
1643124133.0000    312130.800000        79.012450        59.961230        -0.136643
1643124134.0000    312116.200000        65.480400        59.961420        -0.081253
1643124135.0000    312270.200000        51.225330        59.960120        -0.001373
1643124136.0000    312227.600000        36.720260        59.958620        -0.059509
1643124137.0000    312277.400000        22.664760        59.961320        -0.021973
1643124138.0000    312386.600000         9.217643        59.965310         0.044632
1643124139.0000    312042.900000        -3.508237        59.965530         0.042572
1643124140.0000    312084.100000       -16.121720        59.966370         0.048294
1643124141.0000    312208.100000       -28.134170        59.968240         0.073242
1643124142.0000    312088.000000       -39.921900        59.968010         0.081940
1643124143.0000    312090.500000       -51.048490        59.969090         0.031128
1643124144.0000    312305.100000       -61.528260        59.971730        -0.008469
1643124145.0000    312188.600000       -71.711440        59.971650        -0.027695
1643124146.0000    312128.200000       -81.367840        59.975170         0.059509
1643124147.0000    312383.800000       -90.873570        59.972990        -0.031815
1643124148.0000    312247.500000      -100.250000        59.973990        -0.060425
1643124149.0000    312318.600000      -109.292700        59.975220        -0.040970
1643124150.0000    312319.500000      -117.880600        59.977370        -0.031357
1643124151.0000    311947.000000      -125.468300        59.979850        -0.017395
1643124152.0000    312224.100000      -132.385800        59.981270         0.013733
1643124153.0000    312397.600000      -138.761600        59.983290         0.020828
1643124154.0000    312331.300000      -144.579600        59.985530         0.011902
1643124155.0000    312097.500000      -149.786200        59.989110        -0.005493
1643124156.0000    311956.900000      -153.877700        59.988650         0.051956
1643124157.0000    312327.800000      -157.777000        59.991360        -0.000229
1643124158.0000    312340.800000      -161.203700        59.992640         0.054932
1643124159.0000    312115.400000      -163.631400        59.994300        -0.028839
1643124160.0000    312296.300000      -165.411800        59.997330        -0.070496
1643124161.0000    312191.000000      -166.293300        59.996370        -0.071182
1643124162.0000    312054.900000      -166.948300        59.996960        -0.072784
1643124163.0000    312073.900000      -167.068800        60.001670        -0.021744
1643124164.0000    312153.700000      -167.013200        60.001220        -0.061340
1643124165.0000    312276.100000      -166.952100        59.998770        -0.017853
1643124166.0000    312008.300000      -167.411400        59.996650        -0.071640
1643124167.0000    311876.600000      -168.357900        60.001390         0.168686
1643124168.0000    311994.300000      -169.470300        59.993560         0.009842
1643124169.0000    311808.300000      -171.547100        59.993680         0.019684
1643124170.0000    311973.900000      -174.011300        59.992740         0.057220
1643124171.0000    312236.100000      -177.170600        59.990630        -0.019913
1643124172.0000    312070.800000       178.821000        59.986580        -0.031586
1643124173.0000    312294.000000       174.157900        59.986700         0.006638
1643124174.0000    311961.500000       168.210300        59.980600        -0.135269
1643124175.0000    312167.700000       161.588300        59.980120        -0.036392
1643124176.0000    312311.400000       154.149400        59.978650         0.000000
1643124177.0000    312033.500000       146.351000        59.977030        -0.097046
1643124178.0000    312076.700000       138.319500        59.977860         0.090408
1643124179.0000    312274.900000       129.585600        59.974430        -0.058136
