Terminal: BAB      525  C.NOVOS
Tensão base: 525 kV
SOC inicial: 1643124120
SOC final: 1643124179
Taxa: 1 fasores/s
Total de frames faltantes: - 

Tempo_(SOC)           VA_mod_(V)     VA_ang_(graus)     Frequência        Delta_Freq     Faltante
1643124120.0000    309630.400000      -128.973100        59.975290         0.005951
1643124121.0000    309584.000000      -138.090300        59.974250        -0.032730
1643124122.0000    309614.300000      -147.534700        59.973420         0.045547
1643124123.0000    309591.500000      -157.447200        59.972710         0.041656
1643124124.0000    309678.500000      -167.630100        59.972000         0.039597
1643124125.0000    309623.400000      -178.347400        59.971050         0.082397
1643124126.0000    309588.900000       170.410000        59.967960        -0.005722
1643124127.0000    309528.300000       158.757700        59.967450         0.043488
1643124128.0000    309631.700000       147.621100        59.968330        -0.016251
1643124129.0000    309629.300000       136.031700        59.968290        -0.000916
1643124130.0000    309705.100000       124.782400        59.969320         0.047150
1643124131.0000    309487.500000       113.125500        59.967400         0.044632
1643124132.0000    309510.700000       100.821500        59.965640        -0.008926
1643124133.0000    309504.900000        87.878000        59.961880        -0.105057
1643124134.0000    309512.500000        74.338290        59.961110        -0.026321
1643124135.0000    309661.700000        60.083700        59.959840        -0.010757
1643124136.0000    309616.400000        45.583500        59.958820        -0.049438
1643124137.0000    309655.600000        31.523590        59.961630         0.004120
1643124138.0000    309738.900000        18.079430        59.964480         0.006409
1643124139.0000    309514.100000         5.347504        59.964950         0.030670
1643124140.0000    309591.300000        -7.249365        59.966130         0.046005
1643124141.0000    309586.500000       -19.286710        59.967040         0.013275
1643124142.0000    309544.900000       -31.054080        59.967490         0.035706
1643124143.0000    309585.300000       -42.185360        59.969420         0.003662
1643124144.0000    309706.100000       -52.676140        59.971650         0.016251
1643124145.0000    309620.400000       -62.857700        59.971930        -0.016937
1643124146.0000    309573.000000       -72.502890        59.974960         0.065918
1643124147.0000    309693.900000       -82.042770        59.973500        -0.012360
1643124148.0000    309633.200000       -91.413350        59.973320        -0.073700
1643124149.0000    309646.100000      -100.467300        59.975610         0.005493
1643124150.0000    309697.400000      -109.035400        59.977190         0.006866
1643124151.0000    309526.400000      -116.577400        59.980160         0.016937
1643124152.0000    309667.300000      -123.506700        59.981580        -0.018539
1643124153.0000    309686.400000      -129.925000        59.983330         0.009155
1643124154.0000    309627.700000      -135.750300        59.985690         0.030899
1643124155.0000    309591.500000      -140.910300        59.988290         0.028152
1643124156.0000    309514.400000      -144.984700        59.987930        -0.011673
1643124157.0000    309666.000000      -148.932900        59.990600         0.031357
1643124158.0000    309639.300000      -152.369900        59.992230         0.030212
1643124159.0000    309506.300000      -154.775100        59.994000        -0.003662
1643124160.0000    309617.200000      -156.556400        59.997020        -0.008240
1643124161.0000    309573.100000      -157.449700        59.997410        -0.037994
1643124162.0000    309469.400000      -158.067400        59.997470        -0.067291
1643124163.0000    309470.400000      -158.179500        60.000480         0.021515
1643124164.0000    309508.200000      -158.139800        60.000870         0.002060
1643124165.0000    309544.500000      -158.111300        59.999440        -0.002518
1643124166.0000    309455.800000      -158.558800        59.997340        -0.033188
1643124167.0000    309397.200000      -159.529900        59.999060         0.076904
1643124168.0000    309413.500000      -160.627100        59.994310        -0.032730
1643124169.0000    309346.900000      -162.663500        59.993920         0.012589
1643124170.0000    309442.800000      -165.142000        59.992410         0.050812
1643124171.0000    309528.000000      -168.364700        59.990290         0.002975
1643124172.0000    309452.100000      -172.331100        59.987880         0.022659
1643124173.0000    309514.200000      -177.048100        59.986160        -0.002060
1643124174.0000    309399.600000       177.006000        59.982240        -0.034790
1643124175.0000    309466.800000       170.398700        59.980400        -0.030670
1643124176.0000    309510.900000       162.935600        59.978120         0.001831
1643124177.0000    309474.900000       155.162500        59.977930        -0.030212
1643124178.0000    309428.200000       147.157700        59.977870         0.074158
1643124179.0000    309476.700000       138.381500        59.975460         0.003433
