Terminal: BAB      500  JANAUBA 3
Tensão base: 500 kV
SOC inicial: 1643124120
SOC final: 1643124179
Taxa: 1 fasores/s
Total de frames faltantes: - 

Tempo_(SOC)           VB_mod_(V)     VB_ang_(graus)     Frequência        Delta_Freq     Faltante
1643124120.0000    310080.600000       -40.444520        59.975350         0.011444
1643124121.0000    310051.000000       -49.478540        59.973260        -0.014191
1643124122.0000    309998.900000       -58.931320        59.973800         0.059967
1643124123.0000    309972.500000       -68.919590        59.972290         0.013733
1643124124.0000    310045.100000       -79.246560        59.970780        -0.010757
1643124125.0000    309942.500000       -89.881590        59.969980         0.037994
1643124126.0000    309986.300000      -101.029000        59.968240        -0.010071
1643124127.0000    309994.900000      -112.603200        59.967220        -0.008698
1643124128.0000    310097.300000      -123.994400        59.970310         0.073471
1643124129.0000    309938.000000      -135.181600        59.968190        -0.023117
1643124130.0000    309957.300000      -146.669900        59.967780         0.037766
1643124131.0000    309869.200000      -158.156100        59.965130        -0.130692
1643124132.0000    309844.400000      -170.248200        59.965250        -0.011673
1643124133.0000    309893.600000       176.644200        59.963680         0.043488
1643124134.0000    309948.500000       163.013500        59.962430         0.010757
1643124135.0000    309881.300000       148.848700        59.960010         0.020370
1643124136.0000    309957.800000       134.986500        59.960260         0.024261          *
1643124137.0000    309904.900000       120.370600        59.962150         0.032730
1643124138.0000    309819.500000       107.109700        59.963240        -0.007095
1643124139.0000    309911.800000        94.229380        59.964850         0.048065
1643124140.0000    309813.700000        81.796740        59.964860        -0.015793
1643124141.0000    309841.500000        69.688820        59.966380         0.026093
1643124142.0000    309802.800000        58.034430        59.967480        -0.023117
1643124143.0000    309874.300000        46.827720        59.970540         0.013962
1643124144.0000    309867.600000        36.268920        59.971790         0.004349
1643124145.0000    309755.800000        26.309020        59.970900        -0.075531
1643124146.0000    309777.600000        16.637500        59.972620        -0.019684
1643124147.0000    309771.000000         7.160282        59.974370         0.030212
1643124148.0000    309809.800000        -2.355639        59.975290         0.068436
1643124149.0000    309871.100000       -11.435050        59.976280         0.048523
1643124150.0000    309939.100000       -20.006040        59.976680        -0.006638
1643124151.0000    309985.800000       -27.621000        59.980470         0.034790
1643124152.0000    309899.800000       -34.463260        59.981990         0.008469
1643124153.0000    309986.900000       -40.943680        59.982750         0.029984
1643124154.0000    310084.900000       -47.002480        59.985680         0.064774
1643124155.0000    310120.400000       -52.017380        59.987740         0.046921
1643124156.0000    310052.900000       -56.320120        59.988180        -0.069580
1643124157.0000    310026.900000       -60.057400        59.989590        -0.001831
1643124158.0000    310135.900000       -63.579400        59.991700        -0.011215
1643124159.0000    310149.900000       -66.086870        59.992630        -0.046692
1643124160.0000    310134.900000       -67.694610        59.996770        -0.000687
1643124161.0000    310238.800000       -68.770740        59.998640         0.042343
1643124162.0000    310220.200000       -69.186860        59.999030        -0.015106
1643124163.0000    310180.000000       -69.179200        60.000260        -0.028152
1643124164.0000    310191.200000       -69.198570        60.001030         0.061569
1643124165.0000    310223.000000       -69.400730        60.001590         0.109863
1643124166.0000    310052.900000       -69.563180        59.999400        -0.008469
1643124167.0000    310105.800000       -70.455910        59.998230         0.051498
1643124168.0000    310185.800000       -72.058990        59.995210        -0.008926
1643124169.0000    310102.300000       -73.854560        59.993910        -0.016937
1643124170.0000    310133.500000       -76.487690        59.990670        -0.084915
1643124171.0000    310124.700000       -79.579240        59.991310         0.019913
1643124172.0000    310098.800000       -83.451640        59.988670         0.056534
1643124173.0000    310144.800000       -88.263910        59.987020         0.084457
1643124174.0000    309978.800000       -93.898930        59.981110        -0.119476
1643124175.0000    310096.400000      -100.651300        59.981770         0.111694
1643124176.0000    310124.100000      -108.151900        59.979150         0.004807
1643124177.0000    310168.700000      -116.147400        59.978740         0.074158
1643124178.0000    310150.600000      -124.019300        59.978490         0.058365
1643124179.0000    310044.700000      -132.619200        59.974330         0.008011
