Terminal: BAB      525  NOVA STA RITA
Tensão base: 525 kV
SOC inicial: 1643124120
SOC final: 1643124179
Taxa: 1 fasores/s
Total de frames faltantes: - 

Tempo_(SOC)           VA_mod_(V)     VA_ang_(graus)     Frequência        Delta_Freq     Faltante
1643124120.0000    311107.000000      -137.803000        59.975200        -0.002975
1643124121.0000    311003.400000      -146.946000        59.973060        -0.103912
1643124122.0000    311082.000000      -156.385400        59.974480         0.125198
1643124123.0000    311061.800000      -166.288600        59.971050         0.001602
1643124124.0000    311194.600000      -176.463100        59.973460         0.089493
1643124125.0000    311185.000000       172.828800        59.973680         0.208740
1643124126.0000    311107.200000       161.565500        59.967660         0.038910
1643124127.0000    310944.100000       149.905700        59.967340         0.079651
1643124128.0000    311192.200000       138.791200        59.969680         0.003204
1643124129.0000    311238.000000       127.185800        59.969130        -0.022659
1643124130.0000    311221.500000       115.927500        59.969110         0.084457
1643124131.0000    310950.700000       104.259200        59.967500         0.050812
1643124132.0000    310981.400000        91.964550        59.966940         0.043945
1643124133.0000    311075.300000        79.014880        59.961120        -0.122910
1643124134.0000    311046.800000        65.484470        59.961640        -0.073242
1643124135.0000    311222.100000        51.229510        59.960430         0.012131
1643124136.0000    311162.200000        36.723010        59.958420        -0.052643
1643124137.0000    311227.300000        22.668560        59.961300        -0.025864
1643124138.0000    311331.400000         9.221126        59.965140         0.036163
1643124139.0000    310972.700000        -3.504723        59.965850         0.058365
1643124140.0000    311023.200000       -16.116790        59.966270         0.033875
1643124141.0000    311131.500000       -28.131210        59.968510         0.093613
1643124142.0000    311028.000000       -39.918930        59.967950         0.087662
1643124143.0000    311014.500000       -51.044730        59.969530         0.052872
1643124144.0000    311252.000000       -61.524120        59.972010         0.004578
1643124145.0000    311131.700000       -71.707040        59.971600        -0.043030
1643124146.0000    311083.200000       -81.364910        59.974440         0.025635
1643124147.0000    311331.100000       -90.869480        59.972580        -0.052414
1643124148.0000    311206.700000      -100.246600        59.974000        -0.059967
1643124149.0000    311241.400000      -109.289300        59.975260        -0.033417
1643124150.0000    311271.300000      -117.877300        59.977140        -0.035934
1643124151.0000    310902.300000      -125.466800        59.979840        -0.004578
1643124152.0000    311159.600000      -132.381700        59.981340         0.019913
1643124153.0000    311308.000000      -138.755700        59.982730        -0.017166
1643124154.0000    311281.600000      -144.575800        59.985290         0.011673
1643124155.0000    311031.400000      -149.784700        59.988380        -0.029755
1643124156.0000    310891.300000      -153.874000        59.988250         0.032043
1643124157.0000    311272.400000      -157.775100        59.991420         0.019226
1643124158.0000    311284.400000      -161.202700        59.992630         0.067062
1643124159.0000    311047.300000      -163.627800        59.994390        -0.012817
1643124160.0000    311237.600000      -165.406800        59.997560        -0.057220
1643124161.0000    311138.800000      -166.290100        59.996590        -0.045547
1643124162.0000    311006.300000      -166.944300        59.996850        -0.085373
1643124163.0000    311016.000000      -167.064900        60.001590        -0.025406
1643124164.0000    311103.800000      -167.008900        60.001740        -0.036392
1643124165.0000    311227.100000      -166.947000        59.999310         0.003891
1643124166.0000    310995.700000      -167.406600        59.996730        -0.069122
1643124167.0000    310830.800000      -168.355500        60.001030         0.160217
1643124168.0000    310942.900000      -169.467400        59.993500         0.009155
1643124169.0000    310769.600000      -171.543400        59.993720         0.012360
1643124170.0000    310939.700000      -174.007700        59.992820         0.058823
1643124171.0000    311188.700000      -177.166500        59.990260        -0.037308
1643124172.0000    311003.600000       178.822900        59.986840        -0.007553
1643124173.0000    311223.600000       174.161500        59.986700        -0.000687
1643124174.0000    310890.300000       168.211700        59.981190        -0.102768
1643124175.0000    311122.200000       161.594300        59.979920        -0.046005
1643124176.0000    311254.800000       154.151400        59.979010         0.013046
1643124177.0000    310988.400000       146.356000        59.977100        -0.089264
1643124178.0000    311024.100000       138.322200        59.977880         0.094986
1643124179.0000    311219.700000       129.589900        59.974620        -0.058136
