Terminal: BAB      525  AREIA
Tensão base: 525 kV
SOC inicial: 1643124120
SOC final: 1643124179
Taxa: 1 fasores/s
Total de frames faltantes: - 

Tempo_(SOC)           VA_mod_(V)     VA_ang_(graus)     Frequência        Delta_Freq     Faltante
1643124120.0000    312893.700000      -113.272900        59.974950        -0.002518
1643124121.0000    312845.000000      -122.378200        59.974290        -0.035477
1643124122.0000    312805.800000      -131.817000        59.973320         0.029755
1643124123.0000    312846.500000      -141.753200        59.973060         0.027695
1643124124.0000    312917.400000      -151.942200        59.971300         0.010986
1643124125.0000    312831.900000      -162.655400        59.970360         0.044861
1643124126.0000    312803.900000      -173.893500        59.968010        -0.008926
1643124127.0000    312811.600000       174.480700        59.967720         0.016937
1643124128.0000    312867.500000       163.322600        59.968150         0.004578
1643124129.0000    312846.400000       151.770800        59.967920         0.024261
1643124130.0000    312986.200000       140.475600        59.969880         0.070267
1643124131.0000    312683.100000       128.858200        59.966990         0.008240
1643124132.0000    312724.300000       116.554300        59.965590        -0.007782
1643124133.0000    312714.900000       103.610700        59.962220        -0.100021
1643124134.0000    312729.900000        90.071300        59.961520        -0.011444
1643124135.0000    312892.600000        75.800990        59.959820        -0.016479
1643124136.0000    312871.400000        61.322410        59.959610        -0.025177
1643124137.0000    312829.900000        47.247350        59.962930         0.063171
1643124138.0000    312982.700000        33.805480        59.963470        -0.039597
1643124139.0000    312759.800000        21.081750        59.965600         0.051041
1643124140.0000    312864.700000         8.479531        59.966080         0.028610
1643124141.0000    312763.100000        -3.552474        59.967790         0.037308
1643124142.0000    312765.300000       -15.308580        59.967610         0.012589
1643124143.0000    312834.800000       -26.466880        59.968890        -0.006180
1643124144.0000    312914.200000       -36.953170        59.971160         0.005264
1643124145.0000    312795.800000       -47.118590        59.972420        -0.003662
1643124146.0000    312761.900000       -56.764460        59.975040         0.076675
1643124147.0000    312850.600000       -66.317550        59.973410        -0.012360
1643124148.0000    312795.100000       -75.693130        59.973810        -0.064316
1643124149.0000    312820.700000       -84.730520        59.975930         0.007782
1643124150.0000    312887.700000       -93.274890        59.977380         0.044174
1643124151.0000    312814.700000      -100.800600        59.979940         0.008926
1643124152.0000    312935.700000      -107.753500        59.981430        -0.027695
1643124153.0000    312856.100000      -114.162800        59.983080         0.025864
1643124154.0000    312801.100000      -119.982900        59.985820         0.028381
1643124155.0000    312859.200000      -125.091300        59.987330         0.006866
1643124156.0000    312791.000000      -129.195300        59.988690        -0.000229
1643124157.0000    312876.800000      -133.139200        59.990410         0.048523
1643124158.0000    312822.600000      -136.569700        59.992120         0.001831
1643124159.0000    312651.200000      -138.960600        59.993390        -0.028152
1643124160.0000    312848.200000      -140.740600        59.996230        -0.032730
1643124161.0000    312763.500000      -141.647300        59.997500        -0.033875
1643124162.0000    312671.700000      -142.215900        59.997210        -0.125885
1643124163.0000    312600.200000      -142.321400        60.000160         0.026550
1643124164.0000    312648.400000      -142.294600        60.001090         0.006180
1643124165.0000    312657.500000      -142.299200        59.999390        -0.000916
1643124166.0000    312603.600000      -142.728900        59.997620        -0.018311
1643124167.0000    312602.700000      -143.713200        59.998000         0.042114
1643124168.0000    312620.600000      -144.824400        59.995550        -0.032272
1643124169.0000    312550.400000      -146.824600        59.993520         0.010986
1643124170.0000    312658.000000      -149.324700        59.991950         0.024948
1643124171.0000    312669.400000      -152.566400        59.989560        -0.008240
1643124172.0000    312666.900000      -156.509400        59.988910         0.050354
1643124173.0000    312678.000000      -161.259400        59.986080        -0.001373
1643124174.0000    312644.700000      -167.196100        59.982350        -0.010300
1643124175.0000    312639.800000      -173.802400        59.979940        -0.032730
1643124176.0000    312601.200000       178.709400        59.977600        -0.025177
1643124177.0000    312731.300000       170.959900        59.978460        -0.011902
1643124178.0000    312616.500000       162.956800        59.977660         0.043488
1643124179.0000    312625.600000       154.164000        59.975770         0.021973
