Terminal: BAB      765  IVAIPORA FUR
Tensão base: 765 kV
SOC inicial: 1643124120
SOC final: 1643124179
Taxa: 1 fasores/s
Total de frames faltantes: - 

Tempo_(SOC)           VB_mod_(V)     VB_ang_(graus)     Frequência        Delta_Freq     Faltante
1643124120.0000    459346.800000       135.126300        59.975350         0.111303
1643124121.0000    459259.600000       126.052500        59.974080        -0.116702
1643124122.0000    458989.300000       116.595000        59.971400        -0.150777
1643124123.0000    459393.600000       106.638300        59.971650        -0.071907
1643124124.0000    459405.300000        96.442090        59.972180         0.045201
1643124125.0000    459331.400000        85.724040        59.970990         0.059441
1643124126.0000    459243.600000        74.505840        59.968460        -0.011798
1643124127.0000    459319.200000        62.917470        59.966850        -0.072740
1643124128.0000    459290.600000        51.723250        59.968510        -0.248190
1643124129.0000    459358.000000        40.193730        59.968730         0.123814
1643124130.0000    459568.700000        28.878310        59.971730         0.118612
1643124131.0000    459044.900000        17.259800        59.964550        -0.193148
1643124132.0000    459069.100000         4.952082        59.963950        -0.098226
1643124133.0000    459197.400000        -7.970748        59.963550        -0.044595
1643124134.0000    459059.300000       -21.528380        59.958500        -0.164852
1643124135.0000    459274.300000       -35.802180        59.959890         0.025571
1643124136.0000    459321.900000       -50.258830        59.960280        -0.148437
1643124137.0000    459290.600000       -64.322000        59.960670        -0.126039
1643124138.0000    459531.900000       -77.761000        59.964450        -0.033751
1643124139.0000    459338.700000       -90.505730        59.967170         0.108667
1643124140.0000    459368.800000      -103.093300        59.968050         0.189232
1643124141.0000    459298.800000      -115.129800        59.967110         0.139813
1643124142.0000    459296.900000      -126.879000        59.967300        -0.058471
1643124143.0000    459512.600000      -138.038700        59.969720        -0.149765
1643124144.0000    459423.900000      -148.546600        59.971080        -0.022122
1643124145.0000    459238.200000      -158.682800        59.970950        -0.034202
1643124146.0000    459082.400000      -168.337200        59.972770         0.123542
1643124147.0000    459335.000000      -177.897400        59.972260        -0.067860
1643124148.0000    459201.000000       172.689800        59.976190         0.165394
1643124149.0000    459277.500000       163.656500        59.974620         0.106145
1643124150.0000    459457.000000       155.142400        59.977840         0.112320
1643124151.0000    459531.100000       147.628500        59.980880        -0.032910
1643124152.0000    459634.500000       140.652900        59.981880        -0.067429
1643124153.0000    459391.400000       134.229500        59.982580        -0.079479
1643124154.0000    459407.400000       128.370100        59.982540        -0.096227
1643124155.0000    459465.800000       123.296000        59.986350        -0.145981
1643124156.0000    459588.000000       119.140100        59.987300        -0.117128
1643124157.0000    459536.600000       115.206800        59.990500         0.242492
1643124158.0000    459531.800000       111.792800        59.991360        -0.123359
1643124159.0000    459542.900000       109.400900        59.994200        -0.053092
1643124160.0000    459622.300000       107.616300        59.996190        -0.080258
1643124161.0000    459411.300000       106.697100        59.997710        -0.065813
1643124162.0000    459411.000000       106.140000        59.999180        -0.091846
1643124163.0000    459113.700000       106.031500        60.000060         0.039541
1643124164.0000    459346.900000       106.033900        60.000230        -0.035471
1643124165.0000    459321.100000       106.036400        59.999240        -0.002687
1643124166.0000    459059.800000       105.642200        59.997960         0.175292
1643124167.0000    459224.000000       104.637500        59.997780         0.100471
1643124168.0000    459392.700000       103.491200        59.995500        -0.040595
1643124169.0000    459250.100000       101.552300        59.993290         0.040439
1643124170.0000    459131.000000        99.020560        59.990530        -0.015950
1643124171.0000    459120.500000        95.785630        59.990680         0.095364
1643124172.0000    459140.500000        91.859280        59.987560         0.003545
1643124173.0000    459103.000000        87.099920        59.984880        -0.037744
1643124174.0000    458920.200000        81.170540        59.981370         0.045891
1643124175.0000    459064.200000        74.566830        59.981030        -0.037203
1643124176.0000    458981.000000        67.091930        59.979480        -0.162628
1643124177.0000    459238.800000        59.316290        59.977430         0.068983
1643124178.0000    459013.900000        51.330230        59.978950         0.200236
1643124179.0000    459107.800000        42.548310        59.974270        -0.081201
