Terminal: BAB1      525  NOVA STA RITA
Tensão base: 525 kV
SOC inicial: 1643124120
SOC final: 1643124179
Taxa: 1 fasores/s
Total de frames faltantes: - 

Tempo_(SOC)           VA_mod_(V)     VA_ang_(graus)     Frequência        Delta_Freq     Faltante
1643124120.0000    311214.600000      -137.811900        59.975300        -0.004349
1643124121.0000    311118.800000      -146.952500        59.973160        -0.115356
1643124122.0000    311189.900000      -156.395700        59.973850         0.103226
1643124123.0000    311161.600000      -166.300300        59.971100         0.016708
1643124124.0000    311322.200000      -176.473000        59.973040         0.067520
1643124125.0000    311313.200000       172.819500        59.973390         0.187683
1643124126.0000    311225.000000       161.557700        59.967220         0.010300
1643124127.0000    311059.600000       149.896500        59.967010         0.068665
1643124128.0000    311305.600000       138.784600        59.969970         0.000687
1643124129.0000    311353.900000       127.174300        59.968830        -0.033188
1643124130.0000    311340.300000       115.919900        59.968770         0.061111
1643124131.0000    311067.000000       104.250800        59.967480         0.047379
1643124132.0000    311097.400000        91.953330        59.966850         0.038910
1643124133.0000    311192.600000        79.004910        59.961500        -0.107346
1643124134.0000    311172.500000        65.475510        59.961440        -0.089951
1643124135.0000    311327.200000        51.219490        59.960170        -0.001373
1643124136.0000    311268.100000        36.716440        59.958660        -0.065918
1643124137.0000    311342.600000        22.660220        59.961570        -0.016251
1643124138.0000    311455.100000         9.214768        59.965270         0.031586
1643124139.0000    311098.700000        -3.515141        59.965350         0.044861
1643124140.0000    311131.100000       -16.125010        59.966410         0.042801
1643124141.0000    311270.100000       -28.139280        59.968140         0.068893
1643124142.0000    311157.300000       -39.927890        59.967870         0.073471
1643124143.0000    311140.800000       -51.054210        59.969180         0.041656
1643124144.0000    311373.900000       -61.535410        59.971630        -0.003662
1643124145.0000    311250.100000       -71.717350        59.971940        -0.010529
1643124146.0000    311190.300000       -81.375390        59.974780         0.041199
1643124147.0000    311451.100000       -90.880510        59.972640        -0.044632
1643124148.0000    311318.300000      -100.254800        59.974390        -0.044403
1643124149.0000    311369.800000      -109.298100        59.975330        -0.030212
1643124150.0000    311395.700000      -117.887200        59.977240        -0.026550
1643124151.0000    310999.400000      -125.474500        59.980360         0.008469
1643124152.0000    311290.300000      -132.390400        59.981170         0.012589
1643124153.0000    311454.600000      -138.767600        59.983200         0.010071
1643124154.0000    311403.400000      -144.584800        59.985570         0.019684
1643124155.0000    311145.100000      -149.792200        59.988910        -0.003891
1643124156.0000    311022.000000      -153.884000        59.988440         0.042343
1643124157.0000    311393.300000      -157.782800        59.991530         0.005493
1643124158.0000    311403.500000      -161.210100        59.992770         0.066147
1643124159.0000    311177.500000      -163.635000        59.994720        -0.014877
1643124160.0000    311341.200000      -165.415600        59.997580        -0.062256
1643124161.0000    311242.200000      -166.299100        59.996360        -0.057678
1643124162.0000    311128.400000      -166.954700        59.996450        -0.092926
1643124163.0000    311144.400000      -167.074900        60.001240        -0.050125
1643124164.0000    311221.300000      -167.018300        60.001590        -0.046463
1643124165.0000    311344.300000      -166.955700        59.999200        -0.008011
1643124166.0000    311081.300000      -167.418100        59.996450        -0.074615
1643124167.0000    310924.400000      -168.362600        60.000930         0.151978
1643124168.0000    311055.900000      -169.477200        59.993320         0.001602
1643124169.0000    310877.100000      -171.552800        59.993930         0.030670
1643124170.0000    311021.400000      -174.016400        59.992500         0.057678
1643124171.0000    311273.000000      -177.174600        59.990860        -0.010071
1643124172.0000    311120.400000       178.815900        59.987100        -0.004120
1643124173.0000    311347.400000       174.152600        59.986680         0.011215
1643124174.0000    310997.000000       168.201400        59.980970        -0.109406
1643124175.0000    311247.300000       161.585600        59.980190        -0.044632
1643124176.0000    311350.500000       154.140000        59.978650         0.009613
1643124177.0000    311113.600000       146.345200        59.977310        -0.068207
1643124178.0000    311151.500000       138.313400        59.978200         0.124512
1643124179.0000    311341.700000       129.580600        59.974610        -0.049438
