Terminal: BAB1      525  IVAIPORA ELS
Tensão base: 525 kV
SOC inicial: 1643124120
SOC final: 1643124179
Taxa: 1 fasores/s
Total de frames faltantes: - 

Tempo_(SOC)           VA_mod_(V)     VA_ang_(graus)     Frequência        Delta_Freq     Faltante
1643124120.0000    313339.000000      -105.761800        59.974140        -0.012131
1643124121.0000    313208.900000      -114.856600        59.974040        -0.048065
1643124122.0000    313204.700000      -124.297400        59.973120         0.015335
1643124123.0000    313279.600000      -134.254500        59.972150        -0.034332
1643124124.0000    313335.000000      -144.452000        59.971550         0.025177
1643124125.0000    313308.800000      -155.158100        59.970750         0.046463
1643124126.0000    313158.000000      -166.385100        59.967630        -0.030441
1643124127.0000    313305.500000      -177.983000        59.967610        -0.001602
1643124128.0000    313338.800000       170.816700        59.968240         0.001373
1643124129.0000    313273.200000       159.301000        59.967950         0.037079
1643124130.0000    313394.300000       147.973100        59.969710         0.055847
1643124131.0000    313062.500000       136.369900        59.965370        -0.064545
1643124132.0000    313092.800000       124.068900        59.965310        -0.009384
1643124133.0000    313168.800000       111.136700        59.962940        -0.050583
1643124134.0000    313070.300000        97.590160        59.961480         0.017624
1643124135.0000    313268.100000        83.309670        59.960080         0.024948
1643124136.0000    313285.500000        68.848140        59.959240        -0.049438
1643124137.0000    313259.400000        54.766390        59.962160         0.038452
1643124138.0000    313400.200000        41.333850        59.964180         0.016022
1643124139.0000    313253.500000        28.601070        59.966520         0.087204
1643124140.0000    313272.800000        16.001300        59.966040         0.022430
1643124141.0000    313271.700000         3.983748        59.968110         0.020599
1643124142.0000    313242.200000        -7.780774        59.967450         0.007782
1643124143.0000    313374.700000       -18.945020        59.969020        -0.026550
1643124144.0000    313372.300000       -29.440310        59.971530         0.033875
1643124145.0000    313245.700000       -39.584100        59.973000         0.033188
1643124146.0000    313225.100000       -49.240450        59.974840         0.067291
1643124147.0000    313316.900000       -58.792270        59.973280        -0.019226
1643124148.0000    313298.100000       -68.190430        59.974160        -0.057220
1643124149.0000    313287.200000       -77.228360        59.975540         0.002747
1643124150.0000    313423.500000       -85.753450        59.977800         0.041428
1643124151.0000    313395.500000       -93.278980        59.980600         0.021057
1643124152.0000    313461.100000      -100.244600        59.980830        -0.048065
1643124153.0000    313252.400000      -106.667400        59.982470         0.004807
1643124154.0000    313343.300000      -112.506700        59.984740        -0.025864
1643124155.0000    313384.100000      -117.600000        59.987580         0.030899
1643124156.0000    313398.200000      -121.747000        59.989100         0.006409
1643124157.0000    313413.800000      -125.681000        59.990320         0.036392
1643124158.0000    313429.800000      -129.104300        59.992500         0.002518
1643124159.0000    313345.100000      -131.494700        59.993630        -0.003433
1643124160.0000    313450.100000      -133.272900        59.996540        -0.006638
1643124161.0000    313356.000000      -134.189800        59.997840        -0.015793
1643124162.0000    313289.800000      -134.749500        59.998140        -0.072098
1643124163.0000    313158.800000      -134.846800        60.000590         0.032501
1643124164.0000    313285.400000      -134.839300        60.000640        -0.000458
1643124165.0000    313266.200000      -134.843700        59.999110         0.008011
1643124166.0000    313146.800000      -135.252000        59.997570        -0.018997
1643124167.0000    313167.500000      -136.238900        59.997860         0.036850
1643124168.0000    313252.600000      -137.380000        59.996010        -0.021057
1643124169.0000    313165.400000      -139.342400        59.994240         0.030899
1643124170.0000    313176.600000      -141.864700        59.991230        -0.008698
1643124171.0000    313143.700000      -145.093000        59.989440        -0.031815
1643124172.0000    313176.000000      -149.021200        59.988230         0.017624
1643124173.0000    313106.900000      -153.789200        59.985440        -0.016251
1643124174.0000    313048.200000      -159.710500        59.982440         0.005722
1643124175.0000    313115.100000      -166.319400        59.979770        -0.035248
1643124176.0000    313057.400000      -173.810700        59.977200        -0.072556
1643124177.0000    313249.600000       178.437900        59.978890        -0.017166
1643124178.0000    313123.800000       170.435900        59.977840         0.048294
1643124179.0000    313085.600000       161.652500        59.975640         0.039597
