Terminal: BAB2     525  BATEIAS
Tensão base: 500 kV
SOC inicial: 1643124120
SOC final: 1643124179
Taxa: 1 fasores/s
Total de frames faltantes: - 

Tempo_(SOC)           VB_mod_(V)     VB_ang_(graus)     Frequência        Delta_Freq     Faltante
1643124120.0000    312098.500000       119.579500        59.973420         0.155060
1643124121.0000    312324.600000       110.535000        59.974900        -0.017971
1643124122.0000    312203.700000       101.068100        59.973530        -0.179472
1643124123.0000    312411.000000        91.143070        59.973340         0.096950
1643124124.0000    312355.400000        80.956290        59.971370        -0.073948
1643124125.0000    312120.300000        70.173780        59.970810         0.066372
1643124126.0000    312231.800000        58.956310        59.967780        -0.087890
1643124127.0000    311981.300000        47.391310        59.961930        -0.313093
1643124128.0000    312098.000000        36.181810        59.965580        -0.706557
1643124129.0000    312191.500000        24.633500        59.969710         0.004052
1643124130.0000    312512.500000        13.399650        59.973310         0.082253
1643124131.0000    312018.200000         1.709356        59.964170        -0.367453
1643124132.0000    311994.500000       -10.618670        59.963680         0.528363
1643124133.0000    312123.300000       -23.508690        59.960990        -0.585397
1643124134.0000    311956.100000       -37.080860        59.956310         0.265901
1643124135.0000    312285.300000       -51.328950        59.956940        -0.105950
1643124136.0000    312250.500000       -65.769550        59.961410         0.053773
1643124137.0000    311889.200000       -79.877160        59.954090        -0.349737
1643124138.0000    312310.600000       -93.256030        59.967740         0.155497
1643124139.0000    312020.000000      -106.085900        59.967140         0.185647
1643124140.0000    312265.700000      -118.622600        59.968250         0.179764
1643124141.0000    311742.500000      -130.707900        59.967590         0.259446
1643124142.0000    311996.400000      -142.460800        59.969020         0.010103
1643124143.0000    312272.800000      -153.587100        59.973810         0.014222
1643124144.0000    312310.800000      -164.060000        59.970180         0.012501
1643124145.0000    311958.000000      -174.212200        59.971760        -0.093615
1643124146.0000    311865.900000       176.100600        59.974100         0.251777
1643124147.0000    312117.400000       166.540600        59.973000        -0.032515
1643124148.0000    311901.100000       157.138900        59.975890         0.161865
1643124149.0000    311965.100000       148.088500        59.976360         0.270485
1643124150.0000    312000.000000       139.561600        59.979720         0.128428
1643124151.0000    312132.100000       132.065000        59.981010        -0.103243
1643124152.0000    312331.300000       125.120700        59.983410        -0.089491
1643124153.0000    312286.100000       118.669800        59.987260         0.137132
1643124154.0000    311960.000000       112.777700        59.979450        -0.255302
1643124155.0000    312219.000000       107.719900        59.987280         0.195595
1643124156.0000    312362.400000       103.607100        59.988980         0.055967
1643124157.0000    312352.900000        99.660970        59.991740         0.061229
1643124158.0000    312211.500000        96.223770        59.991500        -0.069539
1643124159.0000    311766.800000        93.833910        59.994830        -0.184010
1643124160.0000    312201.500000        92.019840        59.998170         0.239470
1643124161.0000    312017.800000        91.098490        59.996210        -0.462844
1643124162.0000    311867.600000        90.522990        59.996700        -0.351672
1643124163.0000    311509.200000        90.393960        60.000040        -0.132008
1643124164.0000    311927.600000        90.428240        60.002020         0.472123
1643124165.0000    311965.300000        90.458720        60.000690         0.080101
1643124166.0000    311657.300000        90.027920        59.994170        -0.158733
1643124167.0000    311851.300000        89.031710        59.996970         0.163860
1643124168.0000    312077.000000        87.903690        59.995160         0.050393
1643124169.0000    311718.600000        85.947970        59.991660        -0.125412
1643124170.0000    311933.800000        83.422400        59.991390         0.327106
1643124171.0000    311885.300000        80.170020        59.988940        -0.030276
1643124172.0000    311779.000000        76.222690        59.990810         0.365389
1643124173.0000    311806.000000        71.468120        59.984950        -0.032780
1643124174.0000    311627.500000        65.523410        59.979110        -0.194244
1643124175.0000    311807.800000        58.962170        59.983310         0.087703
1643124176.0000    311649.800000        51.481400        59.980150        -0.105455
1643124177.0000    311868.300000        43.709880        59.976970         0.015528
1643124178.0000    311627.100000        35.672080        59.978000         0.389205
1643124179.0000    311766.800000        26.907390        59.975230        -0.152215
