Terminal: BAB2     500  POCOES III
Tensão base: 500 kV
SOC inicial: 1643124120
SOC final: 1643124179
Taxa: 1 fasores/s
Total de frames faltantes: - 

Tempo_(SOC)           VB_mod_(V)     VB_ang_(graus)     Frequência        Delta_Freq     Faltante
1643124120.0000    305386.200000      -166.762900        59.974880        -0.024261
1643124121.0000    305361.200000      -175.762600        59.973720        -0.032959
1643124122.0000    305282.300000       174.768300        59.973580         0.014420
1643124123.0000    305150.800000       164.772200        59.972290         0.002747
1643124124.0000    305228.800000       154.439700        59.971290        -0.011902
1643124125.0000    305149.400000       143.795500        59.970320         0.008240
1643124126.0000    305226.300000       132.658500        59.968760         0.007553
1643124127.0000    305172.600000       121.089400        59.967050        -0.009155
1643124128.0000    305360.300000       109.690100        59.970730         0.062256
1643124129.0000    305198.000000        98.499940        59.969150         0.011215
1643124130.0000    305265.200000        87.017690        59.967590         0.002518
1643124131.0000    305221.900000        75.519960        59.966660        -0.025635
1643124132.0000    305132.400000        63.450050        59.965510        -0.014648
1643124133.0000    305220.900000        50.316170        59.962430         0.007095
1643124134.0000    305226.900000        36.688180        59.961990        -0.002289
1643124135.0000    305146.200000        22.521610        59.959070        -0.022202
1643124136.0000    305313.300000         7.933398        59.959000        -0.029526
1643124137.0000    305222.800000        -5.895444        59.962770         0.031128
1643124138.0000    305156.000000       -19.177000        59.963470         0.004807
1643124139.0000    305233.800000       -32.065430        59.965520         0.066834
1643124140.0000    305016.900000       -44.508980        59.964650        -0.011673
1643124141.0000    305112.400000       -56.616730        59.967930         0.062714
1643124142.0000    305039.400000       -68.264110        59.966530        -0.051270
1643124143.0000    305073.400000       -79.465880        59.970360        -0.001144
1643124144.0000    305082.000000       -90.043330        59.971600         0.008469
1643124145.0000    305014.000000       -99.997450        59.970580        -0.107803
1643124146.0000    304985.400000      -109.663400        59.973470         0.003204
1643124147.0000    304999.800000      -119.144900        59.974440         0.036850
1643124148.0000    305068.300000      -128.668400        59.975160         0.045547
1643124149.0000    305147.600000      -137.733700        59.976050         0.027695
1643124150.0000    305264.100000      -146.300400        59.977630         0.008240
1643124151.0000    305291.000000      -153.950000        59.980480         0.043030
1643124152.0000    305156.700000      -160.812200        59.982090         0.021286
1643124153.0000    305206.800000      -167.288300        59.983090         0.035706
1643124154.0000    305399.600000      -173.324400        59.985840         0.052872
1643124155.0000    305364.100000      -178.324400        59.987460         0.030670
1643124156.0000    305324.300000       177.361400        59.989580         0.004349
1643124157.0000    305243.500000       173.629900        59.989650        -0.009613
1643124158.0000    305539.000000       170.115600        59.991560         0.002518
1643124159.0000    305541.700000       167.594300        59.993580        -0.028152
1643124160.0000    305408.600000       165.980100        59.996390        -0.031815
1643124161.0000    305615.700000       164.908700        59.998590         0.035248
1643124162.0000    305503.700000       164.529000        59.998890        -0.031357
1643124163.0000    305516.800000       164.532300        60.000340        -0.036621
1643124164.0000    305520.900000       164.505800        59.999550         0.004578
1643124165.0000    305650.900000       164.300200        60.000470         0.108261
1643124166.0000    305465.300000       164.143600        60.001240         0.077820
1643124167.0000    305477.500000       163.286100        59.997560         0.033875
1643124168.0000    305626.500000       161.680400        59.995860         0.006409
1643124169.0000    305515.000000       159.874100        59.994110         0.008926
1643124170.0000    305541.800000       157.233800        59.990440        -0.072327
1643124171.0000    305546.800000       154.169100        59.991420         0.046234
1643124172.0000    305464.800000       150.311600        59.988510         0.001373
1643124173.0000    305563.100000       145.487500        59.986480         0.063400
1643124174.0000    305505.800000       139.862000        59.982280        -0.060425
1643124175.0000    305558.000000       133.106600        59.980890         0.047836
1643124176.0000    305674.800000       125.645900        59.979360         0.023346
1643124177.0000    305752.200000       117.657800        59.978660         0.033417
1643124178.0000    305736.700000       109.775300        59.978880         0.059738
1643124179.0000    305575.600000       101.179500        59.974910         0.025177
