Terminal: LT 345  RIO NOVO SUL - CAMPOS C1
Tensão base: 345 kV
SOC inicial: 1643124120
SOC final: 1643124179
Taxa: 1 fasores/s
Total de frames faltantes: - 

Tempo_(SOC)           VA_mod_(V)     VA_ang_(graus)     VB_mod_(V)     VB_ang_(graus)     VC_mod_(V)     VC_ang_(graus)     IA_mod_(A)     IA_ang_(graus)     IB_mod_(A)     IB_ang_(graus)     IC_mod_(A)     IC_ang_(graus)     Frequência        Delta_Freq     Faltante
1643124120.0000    202278.100000        42.749720    202880.900000       162.710700    202339.800000       -77.428960       368.012500      -135.775900       350.765000       -18.091860       352.528800       106.318100        59.974430        -0.019630
1643124121.0000    202256.000000        33.696680    202865.300000       153.665700    202294.800000       -86.476650       368.437700      -144.821200       351.054900       -27.146100       352.681500        97.267630        59.973840         0.006473
1643124122.0000    202224.900000        24.179170    202813.300000       144.137300    202285.800000       -96.004230       368.186700      -154.413000       350.895000       -36.655450       352.309900        87.712370        59.973880        -0.027867
1643124123.0000    201965.500000        14.052390    202580.600000       134.016300    202011.000000      -106.122000       371.000600      -165.012100       353.649700       -47.284800       355.196800        77.082500        59.971760        -0.018736
1643124124.0000    202022.600000         3.777158    202637.500000       123.737500    202076.200000      -116.401000       373.308000      -175.128400       355.727900       -57.430310       357.425000        66.959420        59.971170        -0.006745
1643124125.0000    201993.000000        -6.866480    202565.800000       113.095900    202024.400000      -127.053900       371.742900       174.176000       354.229900       -68.189350       356.070300        56.219960        59.969190        -0.028868
1643124126.0000    202047.700000       -17.958130    202669.300000       102.002300    202112.700000      -138.134300       370.808400       163.335900       353.627500       -79.004090       355.338600        45.394170        59.968140         0.016844
1643124127.0000    202113.300000       -29.585840    202698.200000        90.375600    202157.300000      -149.769100       369.673600       151.540600       352.423300       -90.779380       354.323800        33.613000        59.968510         0.030254
1643124128.0000    202148.200000       -40.868690    202725.000000        79.093700    202185.300000      -161.054100       369.883300       140.335400       352.899600      -101.987200       354.616000        22.449000        59.969580        -0.021602
1643124129.0000    202179.900000       -52.201680    202807.800000        67.755720    202262.900000      -172.376800       367.766800       129.200300       350.919300      -113.095700       352.376600        11.328730        59.969650        -0.004262
1643124130.0000    202174.000000       -63.545210    202785.700000        56.423640    202215.800000       176.281900       366.300300       117.849000       349.246100      -124.493300       350.936500        -0.066780        59.967900         0.001095
1643124131.0000    202144.100000       -75.016910    202759.800000        44.948930    202196.600000       164.808700       366.953100       106.450700       349.945800      -135.869700       351.684400       -11.422700        59.966950         0.005893
1643124132.0000    202077.200000       -87.210050    202677.500000        32.756140    202120.700000       152.613400       363.807600        93.953240       346.560100      -148.416500       348.709400       -23.984890        59.965200        -0.039513
1643124133.0000    202207.200000      -100.268000    202823.800000        19.704140    202241.700000       139.560400       367.967500        81.317920       350.695500      -160.976800       352.616800       -36.574300        59.963280         0.025470
1643124134.0000    202168.700000      -113.872500    202791.300000         6.096426    202216.300000       125.956600       367.777900        67.701870       350.564600      -174.651900       352.673500       -50.237450        59.962210        -0.024299
1643124135.0000    202140.900000      -128.110100    202751.100000        -8.145204    202194.600000       111.714000       367.648100        53.418640       350.499000       171.083000       352.287100       -64.502040        59.959670         0.010318
1643124136.0000    202274.200000      -142.588500    202873.000000       -22.622140    202317.000000        97.233830       367.635800        38.976110       350.321600       156.595100       352.342400       -79.005450        59.960950         0.008827
1643124137.0000    202202.000000      -156.591700    202817.500000       -36.627700    202259.700000        83.235360       365.841700        24.674610       348.855700       142.405700       350.387000       -93.214230        59.962840         0.012334
1643124138.0000    202242.900000      -169.978800    202840.600000       -50.013770    202289.500000        69.845590       362.908000        11.086140       346.004300       128.797600       347.527700      -106.796200        59.963410         0.029781
1643124139.0000    202135.100000       177.218800    202729.800000       -62.813150    202163.000000        57.043370       365.138000        -1.973091       347.846400       115.711400       349.887600      -119.901500        59.966160         0.000787
1643124140.0000    202077.800000       164.538400    202675.700000       -75.501840    202130.800000        44.358980       366.762800       -14.697680       349.494800       103.005700       351.200800      -132.578600        59.965320         0.017014
1643124141.0000    202092.100000       152.526500    202701.500000       -87.509320    202135.300000        32.351420       367.810900       -26.664120       350.593400        91.007160       352.365100      -144.600100        59.968150         0.011295
1643124142.0000    202100.100000       140.762800    202697.700000       -99.272420    202137.100000        20.585090       367.125500       -38.468060       349.923900        79.182600       351.726600      -156.386700        59.967460         0.069249
1643124143.0000    202081.200000       129.604700    202668.600000      -110.429600    202108.600000         9.425996       366.193900       -49.759820       348.862800        67.875680       350.822400      -167.705700        59.969840        -0.033617
1643124144.0000    202141.300000       119.036000    202729.900000      -121.001900    202180.800000        -1.144873       367.582400       -60.245740       350.348700        57.391480       352.212200      -178.160100        59.972590         0.006763
1643124145.0000    202209.600000       109.080300    202809.500000      -130.958200    202264.600000       -11.096640       363.898400       -70.157480       346.923900        47.537500       348.489500       171.968100        59.974340        -0.002468
1643124146.0000    202203.100000        99.408330    202779.300000      -140.632200    202251.300000       -20.776490       365.232100       -79.693040       348.104500        37.995150       349.565700       162.392000        59.975180        -0.013623
1643124147.0000    202075.800000        89.906720    202676.900000      -150.129800    202122.400000       -30.269350       364.346100       -89.360520       347.178200        28.326980       348.645800       152.729700        59.973640        -0.009979
1643124148.0000    202155.400000        80.450300    202743.900000      -159.592200    202214.600000       -39.732600       365.519000       -98.750690       348.250200        18.968860       349.849400       143.330400        59.974750         0.003467
1643124149.0000    202211.400000        71.466170    202813.500000      -168.573000    202269.500000       -48.711690       364.078900      -107.496400       347.144000        10.179990       348.543900       134.586600        59.976590        -0.009988
1643124150.0000    202318.800000        62.980460    202902.100000      -177.062800    202380.500000       -57.203220       363.160700      -115.966300       346.370600         1.740112       347.735800       126.197900        59.979030         0.039438
1643124151.0000    202181.600000        55.310440    202776.800000       175.277600    202209.200000       -64.865200       365.504000      -123.916900       348.263400        -6.197114       349.794700       118.186100        59.980140         0.001710
1643124152.0000    202143.400000        48.338680    202746.500000       168.301900    202185.500000       -71.836170       365.208300      -131.081400       348.110100       -13.364540       349.691300       111.012000        59.981930         0.000564
1643124153.0000    202085.800000        41.873700    202695.200000       161.836700    202129.700000       -78.301580       368.372300      -137.397900       351.273700       -19.730860       352.668400       104.669900        59.983150         0.025688
1643124154.0000    202208.000000        36.014620    202826.300000       155.974100    202269.200000       -84.159930       367.788900      -143.003900       350.314100       -25.339160       352.015400        99.040680        59.985290        -0.056763
1643124155.0000    202182.500000        31.000920    202769.400000       150.961000    202227.500000       -89.179700       365.728600      -148.260600       348.759900       -30.545070       350.162700        93.833510        59.986970         0.067667
1643124156.0000    202168.800000        26.606540    202774.900000       146.569100    202212.800000       -93.568860       368.017100      -152.661500       350.811900       -34.976940       352.001700        89.411560        59.989760         0.008764
1643124157.0000    202212.300000        22.795350    202796.500000       142.756200    202253.400000       -97.386790       366.890400      -156.284400       349.678100       -38.599790       351.299000        85.815160        59.989350         0.015546
1643124158.0000    202474.800000        19.613200    203068.900000       139.579900    202516.400000      -100.561200       361.408600      -159.032000       344.332900       -41.311210       345.784700        83.094840        59.993010        -0.021698
1643124159.0000    202399.000000        17.045810    202998.000000       137.019300    202418.000000      -103.124500       362.810700      -161.712700       345.601600       -44.047870       347.218900        80.314830        59.994860         0.069783
1643124160.0000    202320.500000        15.346590    202927.100000       135.309300    202376.100000      -104.827100       363.572000      -163.513900       346.585300       -45.767220       347.912300        78.628930        59.996560        -0.008888
1643124161.0000    202402.400000        14.391770    202996.000000       134.357900    202440.200000      -105.784000       363.762000      -164.297700       346.438400       -46.580650       347.960200        77.826750        59.998020        -0.012877
1643124162.0000    202394.400000        13.882140    203000.800000       133.846200    202445.300000      -106.290700       361.747200      -164.826600       345.070000       -47.129920       346.297400        77.297700        59.999620        -0.033128
1643124163.0000    202391.600000        13.943450    202978.300000       133.909800    202432.200000      -106.233300       361.310600      -164.476300       344.240800       -46.733670       345.624800        77.671480        59.999570         0.000541
1643124164.0000    202413.400000        13.909780    203005.200000       133.874400    202461.800000      -106.267200       361.302800      -164.453500       344.425800       -46.746810       345.990400        77.668700        59.999690        -0.006026
1643124165.0000    202379.800000        13.846430    202982.400000       133.811800    202431.700000      -106.328200       363.376300      -164.343500       346.267700       -46.629970       347.681000        77.805730        59.999190         0.033676
1643124166.0000    202375.000000        13.598290    202982.300000       133.559900    202446.900000      -106.576800       361.124900      -164.476300       344.525400       -46.703100       345.414100        77.755290        59.998050         0.011074
1643124167.0000    202474.000000        12.782070    203081.200000       132.743400    202554.800000      -107.390600       355.551200      -165.312500       339.060200       -47.571160       340.209600        76.862600        59.998330        -0.023767
1643124168.0000    202401.700000        11.375820    202996.800000       131.343300    202452.000000      -108.798900       360.669500      -166.657600       343.675500       -48.989550       345.344200        75.439460        59.996560         0.034620
1643124169.0000    202482.000000         9.488276    203073.600000       129.459900    202524.600000      -110.685600       359.278100      -168.285000       342.496600       -50.606190       344.303900        73.864190        59.994250        -0.012987
1643124170.0000    202433.100000         6.931705    203039.700000       126.897700    202497.300000      -113.242100       361.222400      -170.834900       344.279000       -53.149250       345.995000        71.272570        59.992120         0.068166
1643124171.0000    202392.300000         3.865141    203002.500000       123.837000    202443.900000      -116.304400       358.836800      -173.890900       341.982100       -56.253670       343.895600        68.232830        59.990140         0.017534
1643124172.0000    202382.200000        -0.077050    202988.000000       119.891400    202441.000000      -120.248200       357.621200      -177.989900       340.811400       -60.351580       342.520800        64.121200        59.987950        -0.024353
1643124173.0000    202377.700000        -4.817884    202988.900000       115.151500    202439.700000      -124.987300       357.312900       177.438900       340.986600       -64.925550       342.233600        59.582680        59.985360        -0.003460
1643124174.0000    202366.400000       -10.530440    202963.200000       109.441300    202414.700000      -130.700400       354.469000       171.595900       338.134900       -70.683180       339.211800        53.784380        59.982750         0.025062
1643124175.0000    202394.900000       -17.241090    202983.600000       102.728000    202445.400000      -137.414600       355.294600       164.937000       338.671300       -77.356960       340.302500        47.107650        59.980930        -0.049328
1643124176.0000    202484.500000       -24.528430    203079.300000        95.444540    202540.100000      -144.696100       349.940800       157.807500       333.754100       -84.490660       334.998700        39.999990        59.980010         0.013790
1643124177.0000    202460.400000       -32.432400    203040.900000        87.533790    202522.500000      -152.608200       353.467600       149.773600       336.699600       -92.552600       338.459800        31.911740        59.978700        -0.017408
1643124178.0000    202488.200000       -40.332960    203071.000000        79.642110    202523.400000      -160.504100       353.700700       141.976700       337.253500      -100.315800       338.517200        24.146230        59.977700        -0.032055
1643124179.0000    202448.000000       -49.108580    203043.400000        70.864750    202495.000000      -169.277200       352.957600       133.082200       336.544800      -109.213100       338.013400        15.283060        59.974860         0.008193
