Terminal: LT 345  RIO NOVO SUL - VIANA C1
Tensão base: 345 kV
SOC inicial: 1643124120
SOC final: 1643124179
Taxa: 1 fasores/s
Total de frames faltantes: - 

Tempo_(SOC)           VA_mod_(V)     VA_ang_(graus)     VB_mod_(V)     VB_ang_(graus)     VC_mod_(V)     VC_ang_(graus)     IA_mod_(A)     IA_ang_(graus)     IB_mod_(A)     IB_ang_(graus)     IC_mod_(A)     IC_ang_(graus)     Frequência        Delta_Freq     Faltante
1643124120.0000    202089.500000        42.881300    202821.000000       162.734200    202250.600000       -77.300930       341.215400        60.019270       331.069400      -178.960500       334.362900       -55.136130        59.974440        -0.020269
1643124121.0000    202067.000000        33.829810    202804.900000       153.690500    202205.300000       -86.347110       341.419200        50.917820       331.391700       171.926400       334.715700       -64.231740        59.973900         0.006912
1643124122.0000    202036.000000        24.311690    202752.800000       144.161900    202196.300000       -95.874930       341.129400        41.365870       330.994800       162.436400       333.953400       -73.741570        59.973930        -0.026892
1643124123.0000    201776.300000        14.185150    202518.000000       134.040900    201920.500000      -105.993000       343.262800        30.549320       332.855300       151.556600       336.188100       -84.606810        59.971810        -0.019292
1643124124.0000    201833.400000         3.910029    202576.200000       123.761900    201986.300000      -116.271800       345.983000        20.282530       335.670100       141.314900       338.969900       -94.849060        59.971230        -0.007197
1643124125.0000    201803.900000        -6.734621    202503.800000       113.119300    201933.700000      -126.925800       345.134400         9.818701       334.605700       130.828400       337.883100      -105.311900        59.969300        -0.029994
1643124126.0000    201858.600000       -17.826920    202607.400000       102.025200    202022.700000      -138.006700       344.131400        -1.161836       333.928000       119.843100       337.249100      -116.286200        59.968170         0.017722
1643124127.0000    201923.900000       -29.453440    202636.100000        90.399640    202067.500000      -149.640500       343.721600       -12.792870       333.385600       108.222800       336.825200      -127.932000        59.968610         0.030422
1643124128.0000    201959.400000       -40.736760    202663.400000        79.117350    202095.000000      -160.925600       344.256700       -24.154570       334.035000        96.867870       337.448400      -139.254100        59.969590        -0.020990
1643124129.0000    201990.800000       -52.069520    202746.100000        67.779650    202173.400000      -172.248100       342.231000       -35.028110       332.480000        86.021930       335.596700      -150.115700        59.969730        -0.003358
1643124130.0000    201985.500000       -63.411910    202724.200000        56.448750    202126.300000       176.411600       340.218100       -46.342840       330.077600        74.710100       333.455400      -161.446300        59.967890         0.001672
1643124131.0000    201954.700000       -74.885250    202698.100000        44.972270    202107.400000       164.936800       340.559500       -57.747340       330.647900        63.301040       333.932800      -172.846400        59.966970         0.005695
1643124132.0000    201888.200000       -87.076760    202614.700000        32.781330    202031.600000       152.743300       338.683400       -69.979280       328.735500        51.044450       332.088000       174.893400        59.965200        -0.039935
1643124133.0000    202018.800000      -100.134800    202761.300000        19.729000    202152.400000       139.690100       341.777100       -82.970320       331.464800        38.051490       334.719100       161.872300        59.963300         0.024475
1643124134.0000    201980.100000      -113.739800    202728.100000         6.121091    202126.700000       126.085800       341.450500       -96.580880       331.034300        24.384150       334.527000       148.245100        59.962250        -0.025438
1643124135.0000    201952.600000      -127.977900    202687.700000        -8.121341    202106.100000       111.842600       340.836600      -110.747900       330.773700        10.271250       334.067700       134.117800        59.959740         0.010767
1643124136.0000    202085.800000      -142.455400    202809.500000       -22.597450    202227.600000        97.363340       341.321700      -125.320000       331.009300        -4.306030       334.555100       119.512400        59.961010         0.008711
1643124137.0000    202012.900000      -156.459000    202754.600000       -36.603280    202170.400000        83.364570       340.015500      -139.415800       329.995500       -18.367720       333.370500       105.452500        59.962790         0.013105
1643124138.0000    202053.500000      -169.847100    202777.000000       -49.990270    202199.200000        69.973820       338.436200      -152.864900       328.601700       -31.852960       331.846800        92.023820        59.963390         0.029759
1643124139.0000    201945.800000       177.351800    202666.100000       -62.788280    202072.400000        57.172950       340.223300      -166.194200       329.847700       -45.174100       333.227500        78.675000        59.966160         0.001719
1643124140.0000    201887.900000       164.670100    202612.100000       -75.478540    202040.700000        44.487100       342.620600      -178.922900       332.427100       -57.899510       335.667000        65.970820        59.965320         0.017762
1643124141.0000    201902.400000       152.659000    202639.100000       -87.485200    202044.500000        32.480100       343.688800       169.094000       333.351300       -69.884820       336.619100        53.974910        59.968130         0.011626
1643124142.0000    201910.800000       140.895600    202634.200000       -99.248050    202046.500000        20.714350       343.162000       157.362900       333.027400       -81.647300       336.510500        42.254200        59.967450         0.068037
1643124143.0000    201892.100000       129.737100    202606.300000      -110.405400    202018.900000         9.554637       342.962500       146.076200       332.752000       -92.899650       336.012100        31.015470        59.969840        -0.034182
1643124144.0000    201952.600000       119.168400    202667.900000      -120.977800    202090.600000        -1.016038       343.450400       135.567500       333.219000      -103.428400       336.623700        20.449940        59.972690         0.008666
1643124145.0000    202020.000000       109.213000    202748.100000      -130.933700    202174.700000       -10.967390       339.543300       126.008000       329.600200      -112.981800       332.669900        10.905090        59.974320        -0.002650
1643124146.0000    202013.700000        99.540980    202718.400000      -140.607600    202161.800000       -20.647180       340.543500       116.394200       330.351600      -122.586200       333.676900         1.308661        59.975210        -0.012650
1643124147.0000    201886.600000        90.039470    202615.200000      -150.104900    202032.500000       -30.139990       339.611000       106.703000       329.409500      -132.263800       332.662300        -8.398973        59.973650        -0.009427
1643124148.0000    201966.000000        80.583700    202682.800000      -159.566800    202124.200000       -39.602570       340.095600        97.314250       330.067100      -141.620200       333.179600       -17.777480        59.974800         0.003609
1643124149.0000    202022.700000        71.599860    202753.100000      -168.547100    202179.800000       -48.581390       339.349900        88.594350       329.440600      -150.366300       332.458000       -26.520240        59.976670        -0.009358
1643124150.0000    202129.100000        63.113190    202842.800000      -177.038300    202291.000000       -57.073910       339.259300        80.076510       329.502000      -158.878100       332.861600       -34.968060        59.979000         0.037825
1643124151.0000    201992.900000        55.443790    202716.600000       175.303100    202119.500000       -64.735420       341.457700        71.914700       331.507200      -167.086500       334.810300       -43.191120        59.980150         0.000951
1643124152.0000    201954.100000        48.471640    202687.600000       168.326700    202095.400000       -71.707050       342.156100        64.802550       331.852500      -174.161500       335.302300       -50.269390        59.981940         0.001173
1643124153.0000    201897.100000        42.006820    202635.700000       161.861300    202039.500000       -78.172500       344.511100        58.276030       334.311500       179.251500       337.770400       -56.838880        59.983170         0.025544
1643124154.0000    202019.500000        36.147160    202767.500000       155.998200    202179.000000       -84.031160       343.956800        52.543620       333.745700       173.561400       337.161600       -62.525680        59.985290        -0.057793
1643124155.0000    201993.700000        31.133040    202710.700000       150.985000    202136.900000       -89.051140       341.792100        47.472950       331.611500       168.477100       335.101100       -67.626000        59.986980         0.068540
1643124156.0000    201979.500000        26.738780    202716.700000       146.593100    202122.800000       -93.440280       343.647900        42.932100       333.583500       163.948400       336.804100       -72.128620        59.989780         0.009030
1643124157.0000    202023.600000        22.927820    202739.000000       142.780600    202163.800000       -97.257990       343.216100        39.393410       333.095600       160.424300       336.472400       -75.679810        59.989380         0.014554
1643124158.0000    202286.400000        19.746270    203013.100000       139.605400    202427.400000      -100.431600       337.323600        36.996770       327.448500       158.053600       330.554700       -78.094050        59.992980        -0.021217
1643124159.0000    202210.100000        17.178390    202941.300000       137.044300    202328.100000      -102.995400       338.866700        34.194410       328.579700       155.221800       332.119800       -80.960850        59.994820         0.071320
1643124160.0000    202131.500000        15.479950    202871.600000       135.335200    202286.600000      -104.697200       338.965900        32.470740       329.052200       153.519000       332.293700       -82.594090        59.996560        -0.008718
1643124161.0000    202212.600000        14.524540    202939.800000       134.383100    202350.100000      -105.654700       339.649700        31.478680       329.341700       152.530100       332.753700       -83.616310        59.998030        -0.011823
1643124162.0000    202205.300000        14.015240    202945.100000       133.871900    202355.500000      -106.161100       339.227100        31.005460       329.291800       152.052400       332.725500       -84.062560        59.999590        -0.031327
1643124163.0000    202202.200000        14.077700    202923.700000       133.936500    202342.800000      -106.102600       338.183300        31.451240       328.245400       152.520400       331.591900       -83.642140        59.999560        -0.000540
1643124164.0000    202224.800000        14.042340    202950.500000       133.899500    202372.500000      -106.138000       338.675500        31.446920       328.577900       152.453300       332.060400       -83.648090        59.999640        -0.006823
1643124165.0000    202191.300000        13.979920    202928.500000       133.837400    202342.500000      -106.198100       339.030600        31.475110       328.949100       152.488900       332.146800       -83.643080        59.999260         0.032778
1643124166.0000    202187.000000        13.731460    202928.500000       133.585800    202357.300000      -106.446900       336.723800        31.520610       327.149600       152.615200       330.179500       -83.509970        59.998070         0.013210
1643124167.0000    202285.600000        12.915730    203027.400000       132.770000    202465.300000      -107.260200       332.283300        31.042910       322.713500       152.104300       325.836700       -84.061370        59.998360        -0.022377
1643124168.0000    202213.600000        11.508370    202942.900000       131.368200    202362.500000      -108.669900       335.003000        29.357740       325.182600       150.434800       328.347700       -85.787120        59.996580         0.034059
1643124169.0000    202294.000000         9.621874    203019.800000       129.486000    202436.500000      -110.555400       334.059300        27.931010       324.288500       148.984700       327.654900       -87.201920        59.994320        -0.013055
1643124170.0000    202244.800000         7.064144    202985.400000       126.922800    202408.600000      -113.112800       334.795100        25.313100       324.984600       146.347000       328.341200       -89.874480        59.992120         0.068900
1643124171.0000    202204.300000         3.997192    202946.600000       123.861900    202355.800000      -116.175400       332.251700        22.358960       322.423300       143.399800       325.866900       -92.817920        59.990090         0.017171
1643124172.0000    202194.200000         0.055821    202931.700000       119.917300    202351.800000      -120.118200       331.739900        18.323380       322.104100       139.394700       325.352000       -96.797330        59.987970        -0.023125
1643124173.0000    202190.200000        -4.684372    202932.800000       115.177600    202350.800000      -124.857200       331.477200        13.724160       321.869700       134.748700       325.136600      -101.403900        59.985400        -0.005867
1643124174.0000    202178.900000       -10.397340    202906.400000       109.467200    202326.100000      -130.570500       330.101800         7.980301       320.684900       129.051800       323.680100      -107.107900        59.982830         0.025609
1643124175.0000    202207.000000       -17.108010    202927.300000       102.754100    202357.100000      -137.284500       330.924200         1.231821       321.251300       122.313900       324.526900      -113.879900        59.980920        -0.048600
1643124176.0000    202297.500000       -24.394630    203022.900000        95.471470    202452.800000      -144.565200       324.745600        -5.533616       315.361500       115.550300       318.411500      -120.638500        59.980030         0.014297
1643124177.0000    202272.400000       -32.298350    202983.700000        87.560900    202433.100000      -152.477300       327.088600       -13.764050       317.302000       107.336500       320.740000      -128.872900        59.978730        -0.017848
1643124178.0000    202300.100000       -40.199310    203014.700000        79.668560    202435.800000      -160.373500       327.723300       -21.641760       318.204300        99.456320       321.359000      -136.771800        59.977710        -0.032240
1643124179.0000    202260.800000       -48.975050    202985.200000        70.890900    202407.400000      -169.146800       327.753800       -30.418660       318.006600        90.672880       321.234600      -145.521400        59.974860         0.006557
