Terminal: LT 345  RIO NOVO SUL - VITORIA C1
Tensão base: 345 kV
SOC inicial: 1643124120
SOC final: 1643124179
Taxa: 1 fasores/s
Total de frames faltantes: - 

Tempo_(SOC)           VA_mod_(V)     VA_ang_(graus)     VB_mod_(V)     VB_ang_(graus)     VC_mod_(V)     VC_ang_(graus)     IA_mod_(A)     IA_ang_(graus)     IB_mod_(A)     IB_ang_(graus)     IC_mod_(A)     IC_ang_(graus)     Frequência        Delta_Freq     Faltante
1643124120.0000    202340.700000        42.845240    202776.200000       162.670900    202409.500000       -77.333470       323.748700        53.622020       340.126900       176.204400       331.663300       -68.613750        59.974500        -0.021415
1643124121.0000    202318.000000        33.793020    202760.100000       153.626500    202364.500000       -86.380290       324.249500        44.506120       340.640600       167.144000       332.063400       -77.731830        59.973860         0.005411
1643124122.0000    202287.400000        24.274040    202708.100000       144.097400    202355.400000       -95.908910       323.860200        34.914410       340.312300       157.593800       331.482800       -87.264460        59.973880        -0.027988
1643124123.0000    202027.200000        14.147940    202474.100000       133.976800    202080.100000      -106.026000       326.668300        24.024220       343.126500       146.677000       334.499800       -98.224210        59.971800        -0.018389
1643124124.0000    202084.200000         3.871814    202530.900000       123.697000    202145.900000      -116.305200       329.685600        13.906570       346.657700       136.515500       338.048100      -108.365900        59.971180        -0.006119
1643124125.0000    202054.800000        -6.771516    202458.400000       113.055500    202092.700000      -126.958600       328.897300         3.489914       345.368000       126.110300       336.908000      -118.746700        59.969150        -0.029593
1643124126.0000    202110.300000       -17.862520    202562.000000       101.962700    202181.500000      -138.038100       327.825300        -7.570295       344.516100       115.028800       335.887500      -129.827200        59.968110         0.018140
1643124127.0000    202175.000000       -29.490510    202590.200000        90.335550    202225.500000      -149.673500       327.823500       -19.196870       344.185500       103.401400       335.960800      -141.450900        59.968560         0.030932
1643124128.0000    202210.700000       -40.773910    202618.900000        79.053220    202253.500000      -160.958700       328.316800       -30.549360       345.011000        92.055130       336.506700      -152.788400        59.969610        -0.019524
1643124129.0000    202243.200000       -52.106090    202701.700000        67.716140    202332.000000      -172.280800       326.054900       -41.341240       342.640200        81.271560       334.074100      -163.544000        59.969670        -0.002822
1643124130.0000    202237.300000       -63.449680    202679.200000        56.383690    202285.500000       176.377600       323.082700       -52.750900       339.382500        69.847460       330.904100      -174.998600        59.967850         0.000269
1643124131.0000    202206.100000       -74.922640    202653.000000        44.907780    202266.100000       164.903400       323.374400       -64.109940       339.832200        58.519120       331.296400       173.666500        59.966950         0.005442
1643124132.0000    202138.900000       -87.114100    202569.500000        32.716550    202190.000000       152.709800       322.216900       -76.321940       338.485000        46.296640       330.051100       161.436500        59.965150        -0.039435
1643124133.0000    202269.800000      -100.171900    202716.400000        19.664440    202311.000000       139.656500       324.250100       -89.335080       340.631600        33.267370       332.094400       148.424300        59.963290         0.023809
1643124134.0000    202230.500000      -113.777700    202682.400000         6.055661    202285.700000       126.051500       323.864000      -102.997400       340.137300        19.598190       331.788600       134.751500        59.962180        -0.025452
1643124135.0000    202204.300000      -128.014600    202641.500000        -8.185416    202263.900000       111.809400       323.492700      -117.095800       339.802600         5.526178       331.233100       120.669900        59.959670         0.011269
1643124136.0000    202337.100000      -142.492800    202764.300000       -22.662200    202386.300000        97.329190       323.972000      -131.743800       340.245700        -9.141117       331.860300       106.018400        59.960960         0.008283
1643124137.0000    202264.300000      -156.497200    202709.800000       -36.668820    202329.200000        83.329770       323.387500      -145.815700       339.818400       -23.198380       331.103600        91.946140        59.962780         0.013031
1643124138.0000    202305.100000      -169.882600    202732.000000       -50.053330    202358.700000        69.941670       322.381000      -159.283400       339.055500       -36.685240       330.512000        78.476430        59.963360         0.028200
1643124139.0000    202196.800000       177.314700    202621.800000       -62.852560    202232.000000        57.139550       324.420300      -172.703500       340.813000       -50.105790       332.530500        64.992010        59.966120         0.002230
1643124140.0000    202138.800000       164.632100    202566.600000       -75.543640    202198.900000        44.453140       327.907100       174.617400       344.388600       -62.708740       336.079400        52.378430        59.965240         0.018457
1643124141.0000    202153.600000       152.621200    202594.300000       -87.550180    202203.900000        32.446500       328.892500       162.715300       345.452300       -74.653470       336.830200        40.423460        59.968080         0.011645
1643124142.0000    202161.400000       140.858200    202589.700000       -99.312470    202205.500000        20.680960       328.775400       150.956100       345.522100       -86.435700       337.152400        28.692270        59.967450         0.066920
1643124143.0000    202142.500000       129.699600    202561.100000      -110.470000    202177.200000         9.521146       328.950900       139.703300       345.387500       -97.649990       336.936200        17.464430        59.969810        -0.035448
1643124144.0000    202203.000000       119.131000    202623.800000      -121.042400    202249.200000        -1.049634       328.751900       129.183000       345.457100      -108.217000       336.979500         6.903011        59.972670         0.007369
1643124145.0000    202271.200000       109.175500    202703.100000      -130.998300    202334.000000       -11.000960       323.663500       119.645000       340.016400      -117.718800       331.659800        -2.593740        59.974340        -0.002883
1643124146.0000    202265.100000        99.502850    202673.500000      -140.672700    202320.800000       -20.681580       324.406800       110.095600       340.978900      -127.276200       332.166700       -12.155530        59.975180        -0.013046
1643124147.0000    202137.600000        90.002560    202570.800000      -150.168900    202192.100000       -30.173150       323.906000       100.332600       340.094800      -137.019400       331.859800       -21.913670        59.973660        -0.007855
1643124148.0000    202216.500000        80.546170    202637.800000      -159.631200    202283.800000       -39.636040       323.803300        90.963560       340.235200      -146.374400       331.647500       -31.299110        59.974810         0.004990
1643124149.0000    202273.800000        71.561730    202708.500000      -168.612500    202339.700000       -48.615790       323.275500        82.205710       339.650500      -155.121900       331.050000       -39.990940        59.976650        -0.009017
1643124150.0000    202380.300000        63.075500    202797.900000      -177.102800    202450.300000       -57.107720       323.235300        73.691320       340.013500      -163.679200       331.373700       -48.514190        59.979010         0.039362
1643124151.0000    202243.000000        55.405900    202671.700000       175.238200    202278.400000       -64.769220       326.758700        65.426200       343.264800      -171.977600       334.713900       -56.830570        59.980160         0.001701
1643124152.0000    202204.800000        48.432880    202642.700000       168.261200    202254.600000       -71.741630       327.683200        58.366730       344.013600      -179.011000       335.609600       -63.909670        59.981970         0.000134
1643124153.0000    202147.400000        41.969200    202591.300000       161.797300    202198.500000       -78.205380       330.347400        51.777030       347.257600       174.403800       338.869400       -70.472360        59.983160         0.025349
1643124154.0000    202270.300000        36.110150    202723.600000       155.934800    202338.200000       -84.063730       329.542600        46.016440       345.987500       168.691100       337.720700       -76.197330        59.985290        -0.056264
1643124155.0000    202243.900000        31.094890    202666.200000       150.920000    202296.000000       -89.085200       327.094600        40.873840       343.712200       163.551800       335.344300       -81.371290        59.986910         0.066800
1643124156.0000    202230.000000        26.701710    202672.400000       146.529600    202282.400000       -93.472940       329.204000        36.387190       345.942000       159.047500       337.460000       -85.820900        59.989790         0.008994
1643124157.0000    202274.800000        22.890760    202694.500000       142.716900    202323.300000       -97.290730       328.615400        32.921190       345.353500       155.525200       336.982900       -89.332510        59.989330         0.014776
1643124158.0000    202537.800000        19.707990    202968.700000       139.540400    202586.700000      -100.465900       320.756900        30.451300       337.132100       153.083600       328.438600       -91.754770        59.993000        -0.020049
1643124159.0000    202461.700000        17.141270    202897.500000       136.980200    202487.900000      -103.028600       322.895800        27.644620       339.250800       150.269100       330.809000       -94.578970        59.994800         0.070466
1643124160.0000    202383.200000        15.442590    202827.000000       135.271300    202446.900000      -104.730200       323.060700        25.938300       339.403700       148.593800       330.892300       -96.292280        59.996600        -0.007912
1643124161.0000    202464.200000        14.486620    202896.000000       134.318400    202510.500000      -105.688500       323.928300        24.851720       340.262300       147.549800       331.646200       -97.355860        59.997990        -0.014295
1643124162.0000    202456.800000        13.978310    202901.000000       133.808400    202515.500000      -106.193800       323.947800        24.404410       340.506400       147.057800       332.082100       -97.824590        59.999600        -0.032305
1643124163.0000    202454.300000        14.040060    202879.200000       133.872000    202503.200000      -106.136300       322.298900        24.926610       338.551200       147.599100       330.078900       -97.289400        59.999580        -0.000867
1643124164.0000    202475.900000        14.004520    202906.700000       133.834800    202532.000000      -106.171800       322.596700        24.909770       338.950800       147.544900       330.391100       -97.344170        59.999630        -0.007121
1643124165.0000    202442.500000        13.942590    202883.700000       133.773500    202502.200000      -106.231300       322.007600        24.955660       338.485800       147.561600       329.865400       -97.297170        59.999240         0.033400
1643124166.0000    202438.600000        13.693670    202883.700000       133.521000    202517.300000      -106.481000       319.556900        25.123110       336.014200       147.765100       327.297300       -97.094860        59.998020         0.010561
1643124167.0000    202537.300000        12.877190    202982.300000       132.704000    202625.400000      -107.295200       314.468700        24.577480       330.524200       147.204400       321.841900       -97.680300        59.998340        -0.024374
1643124168.0000    202464.800000        11.472200    202898.100000       131.305100    202522.400000      -108.702300       316.753200        22.872540       332.695700       145.513100       324.073900       -99.397980        59.996560         0.034866
1643124169.0000    202545.900000         9.584822    202974.200000       129.421900    202595.500000      -110.588700       315.150900        21.548040       331.388100       144.156800       322.893200      -100.673300        59.994280        -0.012621
1643124170.0000    202497.300000         7.026935    202940.200000       126.858400    202568.500000      -113.146400       315.692600        18.835460       331.719000       141.477500       323.004700      -103.378600        59.992150         0.069145
1643124171.0000    202455.800000         3.961132    202901.800000       123.798500    202514.500000      -116.208100       312.691600        15.887520       328.527800       138.505900       319.929700      -106.365300        59.990100         0.018020
1643124172.0000    202445.300000         0.018938    202886.400000       119.853000    202511.400000      -120.151900       312.606800        11.841180       328.614100       134.481400       320.075000      -110.381600        59.988000        -0.022904
1643124173.0000    202441.700000        -4.722603    202887.000000       115.111600    202510.100000      -124.892300       312.047200         7.228643       328.173500       129.863100       319.580700      -114.978400        59.985380        -0.005710
1643124174.0000    202430.600000       -10.433950    202860.600000       109.402600    202483.900000      -130.604200       311.471100         1.443016       327.361000       124.114000       318.609300      -120.749000        59.982750         0.025184
1643124175.0000    202458.800000       -17.144820    202881.600000       102.689600    202515.400000      -137.318400       312.076700        -5.281553       328.208200       117.342400       319.506300      -127.536800        59.980830        -0.049556
1643124176.0000    202548.900000       -24.432520    202976.500000        95.405170    202610.800000      -144.600800       304.009500       -12.170430       319.804700       110.548900       310.909200      -134.288700        59.980050         0.013009
1643124177.0000    202524.700000       -32.335530    202937.800000        87.495840    202591.800000      -152.511900       306.701100       -20.281130       322.297600       102.329300       313.723900      -142.519400        59.978680        -0.016957
1643124178.0000    202552.100000       -40.236170    202967.600000        79.603840    202593.800000      -160.407700       307.177200       -28.197410       322.931900        94.440190       314.463400      -150.430000        59.977700        -0.031563
1643124179.0000    202511.500000       -49.012800    202939.300000        70.825430    202565.400000      -169.181800       307.700900       -36.962570       323.511700        85.675430       314.740100      -159.171300        59.974870         0.008541
