Terminal: LT 500  ANGRA FUR - ZONA OESTE C1
Tensão base: 500 kV
SOC inicial: 1643124120
SOC final: 1643124179
Taxa: 1 fasores/s
Total de frames faltantes: - 

Tempo_(SOC)           VA_mod_(V)     VA_ang_(graus)     VB_mod_(V)     VB_ang_(graus)     VC_mod_(V)     VC_ang_(graus)     IA_mod_(A)     IA_ang_(graus)     IB_mod_(A)     IB_ang_(graus)     IC_mod_(A)     IC_ang_(graus)     Frequência        Delta_Freq     Faltante
1643124120.0000    304961.100000        30.771310    305363.300000       150.502700    307668.300000       -89.281880       392.139600        48.161270       372.868700       170.437000       372.290000       -74.028560        59.972360        -0.005502
1643124121.0000    304938.400000        21.666000    305322.000000       141.456400    307375.100000       -98.360950       392.359400        38.960020       373.254600       161.180200       372.671500       -83.245250        59.973150        -0.169179
1643124122.0000    304879.900000        12.231820    305061.500000       131.943400    307566.100000      -107.866600       394.057100        29.290990       374.071800       151.608800       373.669600       -92.997970        59.972750        -0.423776
1643124123.0000    305233.100000         2.144878    305616.800000       121.915300    307753.300000      -117.892400       391.737300        19.288170       372.709100       141.572600       372.329900      -102.904500        59.972690        -0.240236
1643124124.0000    305150.900000        -8.037258    305527.400000       111.718400    307746.200000      -128.085000       392.902000         9.040300       373.667400       131.321000       372.797200      -113.178800        59.970730        -0.036488
1643124125.0000    305148.400000       -18.738210    305554.300000       101.001500    307829.200000      -138.787100       392.345100        -1.541605       373.278000       120.676100       372.935700      -123.785600        59.972310         0.089221
1643124126.0000    304767.300000       -29.904560    305316.600000        89.867420    307370.500000      -149.911800       392.655200       -12.729900       374.127600       109.523900       373.542800      -134.884100        59.968100         0.114784
1643124127.0000    305158.900000       -41.448430    305530.000000        78.279180    307871.500000      -161.507600       391.937000       -24.064680       372.253100        98.182780       372.240400      -146.374500        59.968350         0.028316
1643124128.0000    305043.500000       -52.723220    305295.600000        67.045690    307517.500000      -172.783200       392.452500       -35.332810       373.042200        86.946660       372.456100      -157.602800        59.968700        -0.284765
1643124129.0000    305074.200000       -64.184090    305573.800000        55.580110    307691.600000       175.795300       392.138200       -46.893120       373.267800        75.370320       372.782700      -169.075200        59.967360        -0.169216
1643124130.0000    305069.400000       -75.597580    305537.800000        44.181940    307604.000000       164.384000       392.427100       -58.366580       373.249200        63.872980       372.667800       179.412400        59.971860         0.163060
1643124131.0000    304763.400000       -87.155440    305273.000000        32.622440    307318.400000       152.830700       392.810700       -69.997060       373.740100        52.318500       372.970700       167.741300        59.965290        -0.225697
1643124132.0000    304915.600000       -99.439320    305442.100000        20.321130    307557.800000       140.539400       391.455700       -82.376910       372.028900        39.863170       371.924600       155.298900        59.963500        -0.282798
1643124133.0000    304955.800000      -112.295300    305325.500000         7.476914    307468.300000       127.666200       392.342100       -95.120290       372.384900        27.147360       372.251500       142.559900        59.963570        -0.014168
1643124134.0000    304782.300000      -125.893100    305406.600000        -6.117406    307399.600000       114.111700       391.664000      -108.691600       372.780600        13.482120       372.201500       129.079400        59.960990        -0.039332
1643124135.0000    305042.900000      -140.152400    305508.100000       -20.396660    307680.100000        99.817690       391.001300      -122.964900       371.434800        -0.683494       371.230500       114.756900        59.958920         0.133928
1643124136.0000    305031.500000      -154.571900    305552.700000       -34.826450    307745.700000        85.400560       391.134800      -137.032900       371.404300       -14.781320       370.860400       100.668600        59.959590        -0.149986
1643124137.0000    304995.400000      -168.664000    305428.800000       -48.886190    307511.000000        71.311860       390.969100      -151.356700       372.026200       -29.076960       371.097600        86.469310        59.961740         0.097798
1643124138.0000    305305.900000       177.878100    305704.600000       -62.358300    307879.300000        57.840550       390.435300      -164.790600       371.178300       -42.557570       370.526100        72.924980        59.964150        -0.065663
1643124139.0000    304907.900000       165.143300    305412.700000       -75.081380    307467.700000        45.128180       392.051200      -177.332600       372.701200       -55.102930       372.222000        60.440850        59.968060         0.414815
1643124140.0000    305133.300000       152.543700    305576.900000       -87.681910    307678.900000        32.518240       390.579000       169.795300       371.612500       -67.946760       370.943000        47.594270        59.966990         0.130447
1643124141.0000    304868.400000       140.524600    305428.400000       -99.714060    307529.100000        20.510050       391.748700       157.991100       371.959400       -79.772870       372.114000        35.668330        59.965310        -0.304370
1643124142.0000    305110.200000       128.759200    305562.100000      -111.462000    307623.500000         8.737615       392.059300       146.182200       372.820300       -91.539340       372.096800        23.993660        59.967440        -0.012872
1643124143.0000    305150.100000       117.577100    305511.400000      -122.644700    307642.600000        -2.459526       392.718000       134.969900       373.307000      -102.710800       372.597400        12.713310        59.969420         0.026486
1643124144.0000    305003.400000       107.094200    305421.100000      -133.148300    307606.900000       -12.943210       394.333000       124.522000       374.754600      -113.165700       373.940600         2.316416        59.971330         0.137242
1643124145.0000    305045.600000        97.008510    305433.900000      -143.226400    307604.500000       -23.031060       391.692100       114.431200       372.623700      -123.260100       371.478200        -7.817259        59.973220         0.194521
1643124146.0000    304976.000000        87.386730    305291.300000      -152.874700    307617.500000       -32.677740       391.437300       104.911800       372.022200      -132.801300       371.729500       -17.378960        59.974540         0.124638
1643124147.0000    305208.800000        77.780560    305557.000000      -162.466900    307794.900000       -42.270250       391.109500        95.163930       371.510500      -142.551400       370.791200       -27.055640        59.973680         0.089659
1643124148.0000    305079.400000        68.397640    305427.100000      -171.883100    307832.800000       -51.672100       391.510500        86.019400       371.599900      -151.693000       371.702200       -36.283290        59.976100         0.027802
1643124149.0000    304951.800000        59.348180    305411.500000       179.100500    307604.800000       -60.684980       390.760000        76.819040       371.517700      -160.875800       370.753400       -45.470060        59.976600         0.171491
1643124150.0000    305263.000000        50.873110    305616.300000       170.630800    307844.000000       -69.176130       390.987300        68.491030       371.520300      -169.194100       370.894200       -53.825090        59.979530         0.180131
1643124151.0000    305244.600000        43.275010    305582.200000       163.052500    307720.700000       -76.766530       391.496200        60.765640       372.661600      -176.925400       371.738700       -61.402410        59.980170         0.013784
1643124152.0000    305295.400000        36.297720    305713.600000       156.059700    307881.600000       -83.737740       391.765700        53.709600       372.397300       175.995900       371.857700       -68.534340        59.981220        -0.051482
1643124153.0000    305015.800000        29.856720    305463.900000       149.651600    307464.700000       -90.159910       391.201100        47.301020       372.621100       169.673700       371.339400       -74.831000        59.981460        -0.038323
1643124154.0000    305104.800000        24.006870    305600.800000       143.761900    307767.800000       -96.018210       390.816900        41.456500       371.008700       163.766200       370.904500       -80.790880        59.981910        -0.377355
1643124155.0000    305190.400000        18.960030    305494.500000       138.717100    307747.500000      -101.096800       390.613100        36.140850       370.846800       158.459300       370.301900       -86.091760        59.987060         0.025989
1643124156.0000    305097.300000        14.678000    305447.800000       134.450300    307598.600000      -105.362800       394.231300        32.069640       374.591100       154.388300       373.755400       -90.152500        59.987180        -0.014420
1643124157.0000    305271.300000        10.764190    305622.200000       130.526000    307822.600000      -109.282800       393.170200        28.033400       373.494900       150.302100       372.931500       -94.215900        59.989390         0.262088
1643124158.0000    305171.300000         7.430640    305535.300000       127.198600    307705.400000      -112.609600       391.926400        24.987320       372.437100       147.365300       371.457900       -97.221980        59.991880        -0.022748
1643124159.0000    305176.200000         4.952404    305607.700000       124.735600    307671.500000      -115.069800       392.255200        22.357600       372.761700       144.667000       371.939400       -99.809760        59.993500         0.051717
1643124160.0000    305261.000000         3.238994    305611.900000       122.996100    307831.700000      -116.809600       391.738600        20.719470       371.939900       142.961300       371.444800      -101.545900        59.996020        -0.018289
1643124161.0000    305064.400000         2.286825    305391.200000       122.047200    307614.600000      -117.764200       392.867600        19.818170       374.111500       142.067600       373.183000      -102.414900        59.997450        -0.113411
1643124162.0000    305170.300000         1.734442    305620.200000       121.503900    307733.300000      -118.291400       392.379400        19.192900       372.914500       141.524300       372.072300      -103.090200        59.998150        -0.273713
1643124163.0000    304886.500000         1.669196    305281.900000       121.417300    307523.900000      -118.377700       392.160100        19.069330       372.314700       141.370000       372.336700      -103.240100        59.998630        -0.093952
1643124164.0000    305127.400000         1.667209    305531.000000       121.420000    307757.400000      -118.376100       391.485000        18.951070       371.889700       141.214700       371.418500      -103.339200        59.999150        -0.037747
1643124165.0000    304948.500000         1.664649    305284.600000       121.418800    307522.200000      -118.387300       392.190900        19.100850       372.551700       141.376900       372.300600      -103.174500        59.996390        -0.016221
1643124166.0000    304978.500000         1.294366    305248.300000       121.060400    307474.200000      -118.765100       390.304300        18.491210       370.673600       140.804000       370.112700      -103.752100        59.998100         0.245202
1643124167.0000    304910.700000         0.304270    305434.700000       120.064700    307554.400000      -119.714200       390.264800        17.693980       370.978900       139.892100       370.703100      -104.613700        59.999160         0.073168
1643124168.0000    305104.900000        -0.913750    305571.600000       118.841600    307745.400000      -120.944900       391.241900        16.487540       372.011000       138.722000       371.843100      -105.798800        59.995480        -0.085867
1643124169.0000    304975.800000        -2.842426    305446.800000       116.932700    307527.700000      -122.863100       392.133000        14.279550       372.372000       136.553100       371.940000      -107.997000        59.994160         0.269525
1643124170.0000    304729.800000        -5.361596    305212.700000       114.393500    307376.300000      -125.390200       392.823700        11.941210       373.675600       134.217300       373.028400      -110.279500        59.989140         0.062199
1643124171.0000    304610.700000        -8.592527    305282.500000       111.196900    307203.100000      -128.573300       391.113200         8.315105       372.235000       130.607100       371.773800      -113.882900        59.989190        -0.236080
1643124172.0000    304818.800000       -12.511900    305370.400000       107.256500    307437.000000      -132.523100       391.193900         4.354511       371.933800       126.642700       371.486200      -117.901200        59.985970        -0.122609
1643124173.0000    304787.600000       -17.314130    305326.200000       102.489000    307245.600000      -137.309800       391.467800        -0.364765       372.617500       121.947400       371.818500      -122.551700        59.983590        -0.203368
1643124174.0000    304863.700000       -23.141860    305238.800000        96.630910    307379.100000      -143.179200       391.049000        -6.173640       371.130100       116.090800       370.774000      -128.524100        59.982030         0.059774
1643124175.0000    304727.800000       -29.761810    305198.500000        90.001550    307323.500000      -149.787900       391.147900       -12.484690       371.738000       109.824800       371.525800      -134.786800        59.978580        -0.234614
1643124176.0000    304940.500000       -37.241770    305338.100000        82.547090    307388.700000      -157.268500       390.955300       -20.149690       371.204900       102.159900       370.698800      -142.389200        59.977520        -0.344103
1643124177.0000    304976.800000       -44.996340    305494.200000        74.743260    307712.300000      -165.027300       391.655800       -27.660410       371.741900        94.594570       371.510900      -149.965800        59.979390        -0.086416
1643124178.0000    304890.300000       -52.957440    305207.500000        66.813290    307381.800000      -173.005500       392.157300       -35.729100       372.350500        86.539510       372.042300      -158.046700        59.979930         0.384307
1643124179.0000    305022.900000       -61.765750    305492.000000        58.015640    307530.200000       178.216500       390.791000       -44.719540       371.619300        77.559740       370.849900      -166.974300        59.975440         0.192235
