Terminal: LT 500  ITUMBIARA - SAO SIMAO-SE C1
Tensão base: 500 kV
SOC inicial: 1643124120
SOC final: 1643124179
Taxa: 1 fasores/s
Total de frames faltantes: - 

Tempo_(SOC)           VA_mod_(V)     VA_ang_(graus)     VB_mod_(V)     VB_ang_(graus)     VC_mod_(V)     VC_ang_(graus)     IA_mod_(A)     IA_ang_(graus)     IB_mod_(A)     IB_ang_(graus)     IC_mod_(A)     IC_ang_(graus)     Frequência        Delta_Freq     Faltante
1643124120.0000    311256.200000        58.521970    310467.500000       178.384200    311673.400000       -61.623540       363.586900        77.204540       392.124500      -163.657100       381.480200       -40.228020        59.974820         0.069460
1643124121.0000    311233.800000        49.446280    310461.300000       169.313100    311621.600000       -70.693980       364.574200        68.104290       392.997400      -172.724200       381.960100       -49.358310        59.975000        -0.047210
1643124122.0000    311240.500000        40.011160    310410.300000       159.875600    311618.900000       -80.139690       364.797500        58.652830       393.559300       177.810700       382.569500       -58.793650        59.973340        -0.004587
1643124123.0000    311273.600000        29.970710    310504.700000       149.836800    311670.100000       -90.168950       364.237000        48.623870       392.973800       167.820400       381.875400       -68.762570        59.972330        -0.023747
1643124124.0000    311285.000000        19.714630    310490.100000       139.582200    311669.800000      -100.430300       363.271000        38.513700       391.720800       157.667000       380.853100       -78.905410        59.970760         0.035612
1643124125.0000    311229.300000         9.048936    310416.500000       128.917400    311596.500000      -111.095200       364.034800        27.772410       392.897400       146.942500       381.634600       -89.600610        59.969140         0.017968
1643124126.0000    311204.200000        -2.096089    310441.900000       117.766500    311626.000000      -122.238000       365.197900        16.528420       393.903200       135.752600       382.666900      -100.881400        59.967860        -0.067800
1643124127.0000    311262.600000       -13.709750    310450.600000       106.154200    311650.500000      -133.860000       365.336000         4.963278       393.970700       124.125500       382.998400      -112.478300        59.967140        -0.119888
1643124128.0000    311332.100000       -24.996890    310496.500000        94.874180    311682.000000      -145.146400       362.749400        -6.346503       391.245700       112.850200       380.214800      -123.737700        59.969860        -0.038059
1643124129.0000    311213.300000       -36.352440    310434.200000        83.508920    311623.900000      -156.496900       367.270200       -17.759730       395.989800       101.432400       384.722800      -135.169300        59.967620         0.076327
1643124130.0000    311250.500000       -47.780540    310477.900000        72.090380    311628.700000      -167.919700       365.973200       -29.099010       394.331000        90.111270       383.459000      -146.525600        59.968860         0.161524
1643124131.0000    311098.300000       -59.288770    310332.600000        60.581120    311486.800000      -179.428000       366.681700       -40.725670       395.222400        78.488370       384.022500      -158.143100        59.966450        -0.200261
1643124132.0000    311108.500000       -71.505710    310326.600000        48.359370    311507.000000       168.350000       369.915900       -53.105780       398.587500        66.161310       387.461000      -170.474700        59.964770        -0.051096
1643124133.0000    311193.700000       -84.535850    310416.600000        35.331000    311585.800000       155.323100       367.598900       -65.888280       396.240500        53.270380       385.306700       176.686900        59.963750         0.116491
1643124134.0000    311140.800000       -98.105030    310386.300000        21.756940    311566.800000       141.754800       365.473200       -79.543130       394.291600        39.681420       383.014700       163.064900        59.962380         0.082868
1643124135.0000    311152.400000      -112.363800    310365.500000         7.497687    311568.700000       127.489300       368.832300       -93.790060       397.424400        25.372220       386.369400       148.770400        59.959170         0.027732
1643124136.0000    311240.400000      -126.864800    310453.500000        -7.001200    311637.800000       112.989300       365.297700      -108.284300       394.191000        10.892970       383.030200       134.321700        59.961220         0.038047
1643124137.0000    311172.400000      -140.860500    310382.200000       -20.992980    311563.800000        98.997700       368.588900      -122.333600       397.225400        -3.142549       386.258500       120.243400        59.961910        -0.078546
1643124138.0000    311133.200000      -154.215000    310337.600000       -34.346830    311514.600000        85.641910       370.939600      -135.721400       399.618500       -16.531370       388.424300       106.837700        59.963700         0.109119
1643124139.0000    311197.700000      -166.997200    310403.700000       -47.128250    311576.600000        72.856190       368.216500      -148.527900       397.216700       -29.342850       386.026800        94.070390        59.965720         0.143536
1643124140.0000    311141.100000      -179.526300    310331.000000       -59.657530    311512.300000        60.326590       371.339000      -161.083500       399.938700       -41.887670       388.915400        81.491180        59.966430         0.148044
1643124141.0000    311112.600000       168.436200    310303.000000       -71.702790    311512.200000        48.284740       369.383900      -173.136500       398.346800       -53.916630       387.114700        69.460780        59.966920         0.059055
1643124142.0000    311111.400000       156.685900    310290.200000       -83.447750    311480.400000        36.536340       370.161100       175.156800       398.941600       -65.646130       387.646300        57.763150        59.967140         0.010464
1643124143.0000    311158.400000       145.493800    310349.400000       -94.638600    311532.700000        25.344650       369.920100       163.970400       398.613200       -76.830060       387.482400        46.555500        59.970290         0.062268
1643124144.0000    311157.600000       134.978700    310304.800000      -105.160700    311541.400000        14.821330       368.821000       153.473800       397.583000       -87.281790       386.386000        36.087670        59.971640        -0.032770
1643124145.0000    311110.400000       124.941800    310267.600000      -115.195300    311484.200000         4.787945       370.946200       143.313000       399.809900       -97.396170       388.546800        25.956630        59.971020        -0.047242
1643124146.0000    311125.400000       115.270000    310252.800000      -124.867600    311495.200000        -4.889733       370.943000       133.692200       399.582200      -107.148800       388.806200        16.218950        59.973530         0.092566
1643124147.0000    311115.900000       105.736800    310325.300000      -134.398400    311501.100000       -14.408260       372.894400       124.104800       401.697900      -116.711400       390.768700         6.647075        59.975140         0.041678
1643124148.0000    311147.800000        96.256960    310338.800000      -143.880500    311551.600000       -23.891560       372.130200       114.661700       401.053200      -126.182100       390.016900        -2.753237        59.975050         0.067315
1643124149.0000    311163.800000        87.211700    310378.500000      -152.925600    311566.800000       -32.933830       371.154700       105.654200       399.889600      -135.247700       389.096400       -11.832780        59.975900         0.033351
1643124150.0000    311223.800000        78.682620    310421.100000      -161.455800    311621.500000       -41.466340       369.862300        97.164960       398.704900      -143.710900       387.910700       -20.300790        59.977800         0.098011
1643124151.0000    311241.700000        71.129240    310462.200000      -169.003400    311634.000000       -49.013050       367.764300        89.611010       396.547300      -151.208900       385.560300       -27.801850        59.980660         0.059302
1643124152.0000    311144.200000        64.195420    310381.300000      -175.938800    311551.800000       -55.944290       371.904800        82.610980       400.831800      -158.220600       389.885300       -34.854490        59.981450        -0.028186
1643124153.0000    311137.000000        57.798120    310403.700000       177.665700    311540.600000       -62.336830       370.049300        76.200600       398.624700      -164.637300       387.773400       -41.251070        59.982120         0.042435
1643124154.0000    311242.400000        51.808570    310475.700000       171.667800    311673.500000       -68.335310       368.660400        70.244670       397.251900      -170.588200       386.448400       -47.198380        59.984560        -0.196278
1643124155.0000    311249.000000        46.761510    310463.100000       166.625500    311654.100000       -73.383440       368.440400        65.252910       397.148500      -175.600200       386.262100       -52.177230        59.987710         0.188541
1643124156.0000    311229.900000        42.471810    310463.400000       162.336400    311637.400000       -77.670080       366.731500        61.047150       395.213700      -179.794200       384.517200       -56.409550        59.988770        -0.098054
1643124157.0000    311204.800000        38.679890    310404.600000       158.544200    311593.000000       -81.465620       368.397800        57.225780       396.751900       176.370500       386.073700       -60.265400        59.989640         0.107835
1643124158.0000    311282.000000        35.217430    310503.900000       155.078400    311700.300000       -84.928180       368.880100        53.642600       397.394400       172.828300       386.618300       -63.805640        59.993190         0.062053
1643124159.0000    311285.700000        32.778240    310525.200000       152.646900    311680.200000       -87.359920       365.354400        51.295600       393.681800       170.460700       383.081700       -66.114170        59.993200        -0.022330
1643124160.0000    311212.000000        31.060980    310452.000000       150.922000    311641.900000       -89.082380       368.308100        49.490770       396.867800       168.709300       385.985900       -67.946560        59.996090         0.054569
1643124161.0000    311275.400000        30.088710    310498.800000       149.953000    311682.700000       -90.054310       365.475500        48.613170       394.063400       167.764000       383.003200       -68.823040        59.996590        -0.116229
1643124162.0000    311214.300000        29.598140    310471.500000       149.463400    311638.800000       -90.538700       367.770000        47.985270       396.222100       167.179700       385.540300       -69.486190        59.998630        -0.155302
1643124163.0000    311131.900000        29.596800    310375.300000       149.459000    311561.300000       -90.545080       368.547200        47.978060       397.034100       167.155900       386.288400       -69.494600        59.999210        -0.112843
1643124164.0000    311228.800000        29.525910    310470.800000       149.385900    311667.400000       -90.616390       368.657700        47.916730       397.506500       167.073700       386.568000       -69.518390        60.000230        -0.072382
1643124165.0000    311253.500000        29.429730    310519.700000       149.296300    311673.700000       -90.705150       365.939600        47.959640       394.681000       167.072700       383.787700       -69.483410        60.000240         0.079017
1643124166.0000    311155.900000        29.156920    310355.300000       149.025800    311533.500000       -90.988950       369.798400        47.551120       398.201800       166.793300       387.025600       -69.878880        59.999070         0.139377
1643124167.0000    311177.700000        28.231100    310408.800000       148.086200    311627.300000       -91.914210       371.079500        46.526820       399.660600       165.769200       388.499600       -70.897450        59.996810        -0.058852
1643124168.0000    311311.900000        26.837450    310519.800000       146.698100    311727.800000       -93.310780       363.993700        45.370830       392.581800       164.618100       381.352800       -71.990720        59.996450         0.044087
1643124169.0000    311237.500000        24.977610    310460.000000       144.840000    311643.200000       -95.167860       367.042900        43.465660       395.163300       162.682100       384.197800       -74.000780        59.992820         0.005604
1643124170.0000    311249.800000        22.400440    310455.400000       142.259800    311675.700000       -97.747040       367.210200        40.850200       395.425900       160.097400       384.247400       -76.590810        59.991630        -0.021296
1643124171.0000    311219.700000        19.251860    310436.400000       139.111300    311643.500000      -100.894200       368.027100        37.597550       396.766500       156.850800       385.404100       -79.810200        59.989880        -0.057548
1643124172.0000    311188.400000        15.347150    310398.000000       135.202700    311624.900000      -104.803600       369.625900        33.726830       398.016800       152.973800       386.691200       -83.695470        59.988610         0.103946
1643124173.0000    311218.900000        10.578720    310438.900000       130.441500    311623.600000      -109.564400       366.827600        28.952380       395.360800       148.248500       383.814200       -88.436940        59.985420        -0.076689
1643124174.0000    311118.400000         4.805198    310319.800000       124.666700    311529.900000      -115.344100       371.029500        23.099620       399.700400       142.299400       388.626200       -94.341540        59.981950        -0.046541
1643124175.0000    311199.200000        -1.883114    310407.500000       117.980300    311601.400000      -122.027300       370.665400        16.395340       398.945400       135.654700       387.878400      -101.055400        59.980870         0.022287
1643124176.0000    311194.700000        -9.358871    310414.500000       110.505900    311594.900000      -129.502100       369.942200         8.903299       398.238700       128.158600       387.043000      -108.539800        59.979620        -0.138376
1643124177.0000    311319.100000       -17.235330    310481.400000       102.625600    311712.800000      -137.388900       366.691000         1.132720       395.702700       120.399400       384.284400      -116.231300        59.979270         0.020100
1643124178.0000    311226.800000       -25.141620    310397.900000        94.723390    311605.100000      -145.292400       367.055500        -6.794572       395.707600       112.433600       384.443700      -124.190800        59.977690         0.056509
1643124179.0000    311160.000000       -33.838050    310355.300000        86.028060    311547.300000      -153.984800       371.051000       -15.572570       399.737200       103.705000       388.322100      -132.955100        59.973370        -0.045191
