Terminal: LT 500  C. PAULISTA - TAUBATE C1
Tensão base: 500 kV
SOC inicial: 1643124120
SOC final: 1643124179
Taxa: 1 fasores/s
Total de frames faltantes: - 

Tempo_(SOC)           VA_mod_(V)     VA_ang_(graus)     VB_mod_(V)     VB_ang_(graus)     VC_mod_(V)     VC_ang_(graus)     IA_mod_(A)     IA_ang_(graus)     IB_mod_(A)     IB_ang_(graus)     IC_mod_(A)     IC_ang_(graus)     Frequência        Delta_Freq     Faltante
1643124120.0000    308514.200000        23.937360    310224.300000       143.606500    311378.400000       -95.998890       541.346100        23.286380       597.786100       149.419100       537.371300       -87.564870        59.973780         0.207657
1643124121.0000    308370.400000        14.813500    310002.800000       134.575500    310758.900000      -105.086400       541.677800        14.155100       595.256600       140.409600       535.407100       -96.911360        59.971780        -0.285183
1643124122.0000    308299.200000         5.417887    309687.600000       125.038500    311222.000000      -114.594500       536.617800         4.599876       595.624100       130.591700       535.883700      -106.067700        59.971580        -0.507401
1643124123.0000    308745.800000        -4.670167    310403.100000       115.063000    311290.200000      -124.581600       537.491800        -5.118330       592.442800       121.120100       532.351300      -116.035000        59.970650        -0.480090
1643124124.0000    308789.900000       -14.853770    310421.700000       104.850200    311462.000000      -134.782800       537.405800       -15.126670       593.687200       110.886900       534.977700      -126.047800        59.972080        -0.056128
1643124125.0000    308740.400000       -25.539740    310479.000000        94.138990    311567.300000      -145.467000       537.446000       -26.124280       594.053300        99.976560       534.006300      -136.948500        59.972400        -0.152255
1643124126.0000    308256.200000       -36.765450    310166.300000        82.979510    310875.600000      -156.629500       540.901600       -37.413810       595.360500        88.764330       535.975000      -148.444700        59.968570         0.195038
1643124127.0000    308623.300000       -48.270830    310350.400000        71.384620    311554.800000      -168.213700       538.435300       -48.976040       597.219800        77.182170       535.918900      -159.541000        59.967090        -0.010314
1643124128.0000    308612.800000       -59.549030    310036.300000        60.168240    311111.900000      -179.505900       536.322200       -60.011330       595.050100        65.908710       535.590300      -170.749900        59.967520        -0.349905
1643124129.0000    308629.500000       -71.028410    310467.800000        48.701070    311287.200000       169.087000       538.961900       -71.672330       596.612700        54.284340       537.894300       177.485800        59.967530        -0.052794
1643124130.0000    308662.700000       -82.424040    310423.700000        37.320880    311199.500000       157.689100       535.873400       -82.712620       594.647400        43.193550       535.999600       166.581500        59.971650         0.131312
1643124131.0000    308230.700000       -94.019200    310065.800000        25.728320    310794.800000       146.103700       537.818200       -94.484690       597.610000        31.486770       537.498100       154.882300        59.963600        -0.286610
1643124132.0000    308240.200000      -106.287400    310140.400000        13.424130    311001.500000       133.827100       538.197400      -107.161000       598.241800        19.029380       536.197500       142.387600        59.964780        -0.295932
1643124133.0000    308423.200000      -119.148900    310063.000000         0.574853    311008.200000       120.931500       540.820200      -119.543600       600.729200         6.898917       536.580300       130.102800        59.963330        -0.081610
1643124134.0000    308131.800000      -132.779500    310189.700000       -13.027560    310796.100000       107.381200       544.149700      -133.925500       599.933400        -7.440280       536.735000       115.316100        59.960680         0.019657
1643124135.0000    308511.100000      -147.011200    310339.600000       -27.306890    311264.400000        93.088350       539.152800      -147.624200       599.286700       -21.553720       538.505100       101.816500        59.960870         0.241239
1643124136.0000    308545.400000      -161.430700    310466.200000       -41.740280    311413.900000        78.675780       539.180400      -162.042000       599.398900       -36.007960       538.769000        87.392250        59.957960        -0.415006
1643124137.0000    308513.800000      -175.529700    310227.000000       -55.784360    311020.300000        64.571930       542.252300      -176.386500       598.924700       -50.408890       540.092400        72.679490        59.961660         0.151967
1643124138.0000    308889.100000       171.045200    310577.400000       -69.241650    311538.800000        51.126540       540.044400       170.266000       598.492700       -63.744620       538.636400        59.498420        59.966040        -0.124593
1643124139.0000    308405.800000       158.267900    310251.600000       -81.987850    310984.200000        38.390930       540.562900       157.410000       598.960100       -76.513080       538.360400        46.637630        59.969020         0.370157
1643124140.0000    308596.300000       145.689300    310328.800000       -94.567640    311125.700000        25.794840       541.452900       144.555000       599.609900       -89.381750       539.174800        33.813120        59.966730         0.048618
1643124141.0000    308240.800000       133.670800    310208.600000      -106.616600    311019.500000        13.794520       538.446000       132.633500       598.862900      -101.136500       536.149500        22.182730        59.965300        -0.303131
1643124142.0000    308638.700000       121.906500    310380.800000      -118.349200    311160.100000         2.012407       538.691000       121.180600       597.886600      -112.858700       538.270000        10.479700        59.966610        -0.084306
1643124143.0000    308825.000000       110.738700    310408.100000      -129.528500    311324.400000        -9.185851       537.413500       110.294700       596.483000      -123.790800       537.357400        -0.378728        59.969390         0.070655
1643124144.0000    308642.200000       100.240500    310332.000000      -140.055700    311329.600000       -19.680190       538.925700        99.578190       598.688300      -134.404000       538.260600       -11.021550        59.971840         0.105221
1643124145.0000    308550.900000        90.145260    310220.300000      -150.136200    311164.700000       -29.773850       542.326800        88.933930       601.409300      -144.978500       540.516700       -21.701840        59.973080         0.304554
1643124146.0000    308452.200000        80.525590    310050.300000      -159.803800    311247.800000       -39.428650       542.587200        79.355850       601.970300      -154.563600       540.984800       -31.266610        59.974570         0.075360
1643124147.0000    308789.900000        70.943190    310411.300000      -169.364800    311493.300000       -48.996060       539.684800        70.091940       598.831700      -163.828600       537.885600       -40.530350        59.972810         0.026166
1643124148.0000    308547.800000        61.552860    310218.100000      -178.809400    311528.300000       -58.406850       540.463900        60.473100       600.834500      -173.198400       537.177700       -49.910510        59.974820        -0.176018
1643124149.0000    308491.500000        52.487660    310281.400000       172.183900    311272.000000       -67.422990       538.393400        52.081470       599.364900       178.125600       538.258500       -58.394570        59.976680         0.217519
1643124150.0000    308951.800000        44.027320    310562.700000       163.726600    311619.800000       -75.910340       538.328100        43.539060       600.920800       169.482800       539.825600       -66.843280        59.980270         0.286926
1643124151.0000    308977.700000        36.433640    310498.100000       156.171300    311419.900000       -83.496810       539.243000        36.095200       596.608000       162.094300       537.471800       -74.728860        59.980360        -0.092119
1643124152.0000    309025.900000        29.463910    310721.900000       149.176700    311674.800000       -90.451130       537.615900        29.023880       597.125100       155.079100       536.723400       -81.569080        59.980610        -0.100053
1643124153.0000    308576.600000        22.988080    310267.500000       142.757300    310966.200000       -96.901660       542.167500        22.075130       599.010600       148.259800       537.902400       -88.739070        59.981510        -0.005327
1643124154.0000    308596.600000        17.158020    310457.100000       136.860500    311384.500000      -102.737100       541.562000        16.099740       600.999000       142.188800       540.016500       -94.497270        59.980780        -0.256629
1643124155.0000    308620.400000        12.130090    310169.900000       131.826800    311275.900000      -107.817600       539.570400        12.065660       598.490400       137.980800       539.288800       -98.644660        59.988570         0.010991
1643124156.0000    308822.300000         7.837454    310409.500000       127.561500    311362.800000      -112.090900       537.822100         7.409419       596.875200       133.565700       535.546200      -103.180200        59.987660         0.099860
1643124157.0000    308954.100000         3.939455    310555.000000       123.648700    311575.900000      -115.993100       538.167400         3.359833       596.355200       129.291200       537.322400      -107.395000        59.990770         0.339443
1643124158.0000    308822.300000         0.580183    310434.200000       120.299100    311405.400000      -119.348900       538.714200         0.078292       599.493700       126.028400       539.031600      -110.453000        59.990600        -0.074408
1643124159.0000    308797.800000        -1.887623    310480.700000       117.857800    311291.600000      -121.788100       540.026700        -2.651072       597.513600       123.325700       538.381100      -113.491900        59.994000         0.136897
1643124160.0000    308904.800000        -3.598213    310527.700000       116.105300    311571.600000      -123.531200       541.837100        -4.529228       600.195600       121.591100       538.898900      -115.215400        59.996060        -0.168840
1643124161.0000    308687.000000        -4.563230    310269.800000       115.146200    311294.900000      -124.500500       541.158800        -5.670791       599.224100       120.369000       539.104900      -116.463600        59.997790        -0.162815
1643124162.0000    308764.300000        -5.115487    310524.800000       114.610300    311391.300000      -125.015500       540.669000        -6.120115       599.293600       119.949300       539.053500      -116.796400        59.997930        -0.198600
1643124163.0000    308352.300000        -5.189368    310077.200000       114.495900    311141.800000      -125.117600       540.848700        -6.353275       600.236400       119.841500       538.189600      -116.882100        59.999720        -0.043972
1643124164.0000    308625.300000        -5.190076    310340.200000       114.507700    311352.100000      -125.111200       542.170500        -6.293139       601.061800       119.888000       539.264500      -116.908900        60.000070         0.090619
1643124165.0000    308523.300000        -5.208309    310134.700000       114.492000    311183.300000      -125.145600       543.172900        -6.363815       601.635100       120.153900       536.741200      -116.813800        59.997180         0.161135
1643124166.0000    308465.600000        -5.567979    309933.400000       114.144800    310999.300000      -125.519800       542.657700        -6.236598       600.896400       120.098400       538.038700      -116.849600        59.997280         0.156337
1643124167.0000    308279.200000        -6.564675    310206.700000       113.152600    311033.200000      -126.443200       542.088400        -7.494315       600.200700       118.818700       537.845200      -118.107300        59.997010        -0.164604
1643124168.0000    308711.800000        -7.764845    310533.700000       111.939800    311475.000000      -127.664900       539.616800        -8.535926       598.946800       117.638500       537.204700      -119.081200        59.996380        -0.049835
1643124169.0000    308630.000000        -9.702599    310422.800000       110.030500    311235.500000      -129.593100       538.590500       -10.234110       598.945900       115.932500       536.937500      -120.710600        59.996540         0.242960
1643124170.0000    308179.400000       -12.249170    309983.400000       107.456400    310912.900000      -132.151900       539.913800       -12.522080       597.168900       113.371300       539.017300      -123.444400        59.990140         0.255429
1643124171.0000    307881.800000       -15.495950    309952.000000       104.273100    310464.600000      -135.322900       538.697600       -15.820560       600.938700       110.023800       541.028300      -126.320300        59.989850        -0.110787
1643124172.0000    308216.000000       -19.391800    310128.400000       100.339500    310897.300000      -139.263800       538.151700       -19.768640       599.509900       106.313800       537.775500      -130.186900        59.987070        -0.111947
1643124173.0000    308205.600000       -24.207890    310034.200000        95.578180    310591.800000      -144.065400       538.901100       -24.472380       599.219000       101.587000       538.030000      -135.011700        59.983590        -0.042200
1643124174.0000    308260.700000       -30.023930    309910.900000        89.697590    310851.700000      -149.943600       541.935400       -30.860020       602.146600        95.545060       538.224200      -141.215300        59.981660        -0.003407
1643124175.0000    308121.300000       -36.648540    309930.400000        83.067590    310815.000000      -156.546800       541.619100       -37.405960       599.589600        88.968220       536.596400      -148.015500        59.977240        -0.147974
1643124176.0000    308470.900000       -44.114350    310083.300000        75.636840    310905.200000      -164.023200       540.726500       -44.840770       600.201900        81.497340       536.852800      -155.291500        59.976000        -0.437721
1643124177.0000    308524.500000       -51.861580    310464.400000        67.815970    311463.400000      -171.760800       541.445400       -52.956160       601.909600        73.335850       538.395100      -163.373800        59.977970        -0.359266
1643124178.0000    308454.600000       -59.845060    310003.400000        59.875300    310989.600000      -179.780900       542.956400       -60.804480       600.422400        65.463010       538.580700      -171.462000        59.981060         0.428862
1643124179.0000    308515.800000       -68.646970    310293.200000        51.100480    311038.000000       171.466600       543.728800       -69.726930       600.896200        56.512900       539.336300       179.501100        59.976650         0.358121
