Terminal: LT 500  IMPERATRIZ - ACAILANDIA C1
Tensão base: 500 kV
SOC inicial: 1643124120
SOC final: 1643124179
Taxa: 1 fasores/s
Total de frames faltantes: - 

Tempo_(SOC)           VA_mod_(V)     VA_ang_(graus)     VB_mod_(V)     VB_ang_(graus)     VC_mod_(V)     VC_ang_(graus)     IA_mod_(A)     IA_ang_(graus)     IB_mod_(A)     IB_ang_(graus)     IC_mod_(A)     IC_ang_(graus)     Frequência        Delta_Freq     Faltante
1643124120.0000    310519.700000       -17.290590    312554.000000      -137.364000    311473.800000       102.503300       501.627300       168.279600       475.418900        42.626670       429.835400       -74.017970        59.974800        -0.003662
1643124121.0000    310459.100000       -26.299360    312515.200000      -146.371200    311409.800000        93.490000       501.728200       159.274800       475.742600        33.618490       430.494800       -82.997340        59.973900        -0.017624
1643124122.0000    310355.300000       -35.705750    312432.500000      -155.778300    311327.700000        84.081620       502.521200       149.926400       476.340000        24.281560       430.845600       -92.326020        59.973670         0.029984
1643124123.0000    310344.000000       -45.691530    312436.500000      -165.765800    311295.900000        74.096740       503.650100       139.966600       477.467800        14.316310       432.073400      -102.295800        59.971720         0.022430
1643124124.0000    310433.200000       -56.113380    312514.800000      -176.188100    311397.800000        63.672070       500.637700       129.517800       474.674600         3.839960       428.844300      -112.739600        59.971410         0.009842
1643124125.0000    310314.700000       -66.657680    312401.700000       173.269400    311286.700000        53.131680       504.435200       118.997200       478.701800        -6.651371       433.140400      -123.269900        59.969920         0.020599
1643124126.0000    310357.000000       -77.813450    312411.300000       162.111500    311298.000000        41.979340       504.377300       107.885500       478.634100       -17.763610       433.056200      -134.405000        59.968360        -0.000229
1643124127.0000    310354.300000       -89.395200    312433.600000       150.536500    311323.500000        30.395440       505.114900        96.247680       479.180500       -29.376770       433.556500      -146.020300        59.966330        -0.043030
1643124128.0000    310582.800000      -100.951900    312651.300000       138.976100    311536.300000        18.840550       500.705700        84.606510       474.616400       -41.059150       429.207300      -157.623000        59.968730        -0.014648
1643124129.0000    310422.800000      -111.998100    312495.000000       127.923900    311367.700000         7.790857       504.816700        73.594960       478.868200       -52.056640       433.384600      -168.687000        59.969430         0.000687
1643124130.0000    310318.900000      -123.468600    312387.100000       116.460500    311272.800000        -3.677947       505.176000        62.160330       479.278500       -63.476920       433.657000       179.915900        59.966630        -0.039368
1643124131.0000    310235.200000      -134.953900    312311.300000       104.971500    311170.500000       -15.166760       505.196900        50.703850       479.294600       -74.952510       433.845800       168.416200        59.967820        -0.020599
1643124132.0000    310086.000000      -146.900300    312167.800000        93.027590    311053.000000       -27.113330       509.670000        38.822080       483.761900       -86.782840       438.146800       156.548500        59.964980        -0.032501
1643124133.0000    310125.200000      -160.070800    312195.600000        79.855400    311097.300000       -40.283450       508.266800        25.698440       482.285900       -99.897210       436.645300       143.430800        59.962720         0.043488
1643124134.0000    310285.800000      -173.815400    312338.800000        66.113840    311242.800000       -54.020870       504.692900        11.876100       478.913200      -113.759800       432.974000       129.622800        59.961060        -0.029984
1643124135.0000    310211.200000       172.114100    312251.700000        52.045420    311141.900000       -68.088490       507.754100        -2.295270       481.854200      -127.905700       436.256000       115.393900        59.960010         0.014420
1643124136.0000    310356.700000       157.432800    312431.300000        37.361000    311313.700000       -82.777170       505.510700       -16.893790       479.920900      -142.547900       434.051300       100.839400        59.959700        -0.017853
1643124137.0000    310370.100000       143.554600    312459.400000        23.480080    311324.800000       -96.658500       505.204600       -30.954480       479.366800      -156.586900       433.842600        86.733090        59.962280         0.000458
1643124138.0000    310263.300000       130.417800    312339.400000        10.346240    311234.200000      -109.794100       508.825200       -44.038300       483.316700      -169.655300       437.428200        73.623780        59.964100         0.028839
1643124139.0000    310276.800000       117.512300    312366.000000        -2.555094    311256.700000      -122.694300       508.126800       -56.912860       482.276500       177.521700       436.809500        60.827410        59.965050         0.020370
1643124140.0000    310193.500000       105.146300    312287.300000       -14.919050    311168.600000      -135.062400       509.621000       -69.328190       483.813000       165.107900       438.333400        48.392070        59.965480        -0.019455
1643124141.0000    310205.900000        92.989770    312313.700000       -27.076310    311193.700000      -147.221600       508.643700       -81.390170       483.020000       152.928600       437.209900        36.337970        59.965800        -0.057678
1643124142.0000    310200.400000        81.395750    312297.800000       -38.670480    311195.800000      -158.812700       509.979100       -93.051250       483.978200       141.332400       438.407100        24.643780        59.968100        -0.005035
1643124143.0000    310333.300000        70.087370    312414.700000       -49.981300    311312.900000      -170.120300       508.269100      -104.386900       482.009800       129.977200       436.225700        13.333510        59.969640         0.009384
1643124144.0000    310353.700000        59.523430    312442.600000       -60.541540    311362.600000       179.316000       506.745700      -114.998900       480.803300       119.376600       434.927300         2.765645        59.972210         0.039825
1643124145.0000    310229.600000        49.670710    312311.700000       -70.393580    311219.700000       169.462600       509.537400      -124.817300       483.653400       109.542800       437.544200        -7.104019        59.972550        -0.041428
1643124146.0000    310296.500000        39.967930    312368.200000       -80.098760    311280.000000       159.760800       509.347800      -134.524100       483.411100        99.863380       437.635600       -16.824790        59.973040        -0.018311
1643124147.0000    310256.000000        30.525110    312336.600000       -89.545070    311206.200000       150.312700       510.908500      -143.984300       485.623300        90.397770       439.280600       -26.345270        59.975050         0.057907
1643124148.0000    310268.200000        20.978730    312344.700000       -99.092700    311218.300000       140.766700       510.657500      -153.474200       485.596700        80.916820       439.641400       -35.841230        59.973630         0.009384
1643124149.0000    310435.700000        11.797060    312484.600000      -108.278400    311357.900000       131.587200       507.290600      -162.740000       481.946800        71.678030       436.011700       -45.033290        59.975850         0.015335
1643124150.0000    310426.900000         3.261518    312511.700000      -116.813900    311380.900000       123.047800       508.718800      -171.282300       483.397400        63.089510       437.631200       -53.609770        59.976840        -0.022659
1643124151.0000    310505.400000        -4.437841    312581.800000      -124.516800    311436.300000       115.344900       506.530300      -178.986300       481.324400        55.346500       434.979300       -61.325100        59.980190        -0.001831
1643124152.0000    310380.200000       -11.176910    312450.200000      -131.256300    311305.400000       108.612000       509.568900       174.361600       484.110000        48.759530       438.227100       -67.972180        59.981450        -0.011444
1643124153.0000    310457.600000       -17.704370    312508.400000      -137.776500    311389.300000       102.083000       507.045300       167.807200       481.710100        42.186100       435.676400       -74.565140        59.982930         0.026779
1643124154.0000    310521.200000       -23.776490    312585.500000      -143.850200    311457.500000        96.016430       507.134400       161.697300       481.371100        36.081090       435.760900       -80.625150        59.984250         0.017853
1643124155.0000    310574.400000       -28.806100    312655.000000      -148.885100    311499.600000        90.983230       505.752700       156.613800       479.962100        30.964670       434.244800       -85.718410        59.987470         0.036163
1643124156.0000    310455.200000       -33.078130    312554.400000      -153.156100    311392.200000        86.706070       506.784500       152.451100       481.177800        26.798030       435.262800       -89.879740        59.988710        -0.012131
1643124157.0000    310425.500000       -36.792110    312501.700000      -156.866900    311360.800000        82.995940       507.723600       148.692800       482.458700        23.050700       436.283200       -93.654440        59.989610        -0.008698
1643124158.0000    310496.200000       -40.386700    312567.500000      -160.462000    311421.500000        79.402400       507.614900       145.156700       482.269900        19.529290       436.293000       -97.173130        59.991120         0.009384
1643124159.0000    310631.300000       -43.002460    312702.500000      -163.078000    311571.200000        76.790070       504.327400       142.498800       478.898800        16.849370       432.808700       -99.789470        59.993520        -0.038223
1643124160.0000    310596.400000       -44.503430    312661.300000      -164.581700    311527.700000        75.285590       507.086000       140.901600       481.655100        15.249990       435.159000      -101.457600        59.997090         0.007095
1643124161.0000    310688.100000       -45.604680    312754.800000      -165.678400    311623.700000        74.185250       505.012500       139.772600       479.623000        14.111220       433.536800      -102.598200        59.998260         0.020142
1643124162.0000    310695.100000       -46.002100    312729.700000      -166.074500    311635.900000        73.793430       504.577000       139.237500       479.283300        13.546550       432.894800      -103.121600        59.999460        -0.039597
1643124163.0000    310655.000000       -45.987220    312731.900000      -166.066200    311601.000000        73.801030       504.522700       139.298100       478.958300        13.597810       432.807400      -103.068500        60.000530        -0.032959
1643124164.0000    310575.800000       -45.967540    312651.200000      -166.045800    311512.200000        73.822560       506.623700       139.399100       481.395700        13.743060       435.230400      -102.977400        59.999130        -0.019684
1643124165.0000    310709.200000       -46.307680    312784.100000      -166.391600    311613.900000        73.478080       503.811800       139.058100       478.168400        13.346110       432.290100      -103.340100        59.999250         0.081482
1643124166.0000    310587.000000       -46.397610    312658.000000      -166.472400    311532.700000        73.390110       505.396100       138.889800       479.688800        13.200660       433.676000      -103.410800        60.002560         0.134354
1643124167.0000    310526.100000       -47.229410    312579.400000      -167.296400    311502.400000        72.566880       507.010300       138.123300       481.511000        12.430290       435.556000      -104.228000        59.996000         0.027924
1643124168.0000    310697.800000       -49.012410    312779.500000      -169.076400    311679.200000        70.785130       502.246900       136.302100       476.605100        10.589680       430.608600      -105.979800        59.995000         0.031815
1643124169.0000    310775.100000       -50.814760    312835.000000      -170.889000    311710.900000        68.975840       501.520600       134.452500       475.459000         8.705583       429.679400      -107.884700        59.995100         0.014420
1643124170.0000    310665.800000       -53.387660    312719.100000      -173.454400    311606.400000        66.409370       503.575900       132.009400       477.571800         6.279629       431.459600      -110.328300        59.991480        -0.043716
1643124171.0000    310681.000000       -56.494190    312740.300000      -176.562700    311643.800000        63.301620       502.638100       128.844700       476.843500         3.121112       430.943600      -113.501500        59.990920         0.043259
1643124172.0000    310586.500000       -60.314030    312617.500000       179.621600    311559.200000        59.486660       503.692500       125.065600       477.994600        -0.648987       432.288900      -117.286700        59.986690        -0.054016
1643124173.0000    310551.200000       -65.167830    312612.800000       174.767400    311538.100000        54.628230       503.013400       120.260600       477.187500        -5.442626       431.617600      -122.055900        59.985280        -0.006409
1643124174.0000    310501.800000       -70.753730    312545.500000       169.175900    311477.000000        49.043370       504.731500       114.642000       478.948700       -11.034050       432.995200      -127.675900        59.982780        -0.010300
1643124175.0000    310570.400000       -77.560060    312644.000000       162.370600    311526.300000        42.233410       504.060900       107.906300       478.019800       -17.807860       432.283400      -134.387600        59.980480         0.065002
1643124176.0000    310622.700000       -85.088810    312706.300000       154.846000    311604.800000        34.705220       503.250700       100.350400       477.404200       -25.390940       431.462200      -142.007000        59.978960        -0.007324
1643124177.0000    310687.700000       -93.112610    312772.100000       146.820400    311666.800000        26.679210       502.630500        92.295450       476.706800       -33.427530       430.843000      -149.964400        59.977940         0.015335
1643124178.0000    310717.200000      -100.976900    312756.700000       138.957200    311695.100000        18.821570       502.346800        84.357390       476.452200       -41.358960       430.740500      -157.947100        59.978290         0.004349
1643124179.0000    310440.400000      -109.402900    312526.900000       130.532500    311454.100000        10.389080       506.367300        76.006870       480.846400       -49.693180       434.845500      -166.332500        59.974620        -0.008469
