Terminal: LT 525  ITA - MACHADINHO C1
Tensão base: 525 kV
SOC inicial: 1643124120
SOC final: 1643124179
Taxa: 1 fasores/s
Total de frames faltantes: - 

Tempo_(SOC)           VA_mod_(V)     VA_ang_(graus)     VB_mod_(V)     VB_ang_(graus)     VC_mod_(V)     VC_ang_(graus)     IA_mod_(A)     IA_ang_(graus)     IB_mod_(A)     IB_ang_(graus)     IC_mod_(A)     IC_ang_(graus)     Frequência        Delta_Freq     Faltante
1643124120.0000    310578.300000      -125.826200    311210.500000       113.909500    309910.700000        -6.060770       330.597000      -112.688700       379.072700       122.940800       345.964100        -4.225964        59.975600         0.021057
1643124121.0000    310514.900000      -134.949200    311106.500000       104.786800    309817.200000       -15.181840       329.477100      -121.785000       377.507800       114.066800       344.225900       -13.041380        59.973720        -0.056305
1643124122.0000    310522.400000      -144.387400    311177.500000        95.341890    309850.400000       -24.630020       329.885800      -131.209200       377.507200       104.585100       345.231700       -22.505220        59.973440         0.062027
1643124123.0000    310524.300000      -154.300900    311175.800000        85.463740    309997.700000       -34.527500       329.776000      -141.150100       378.911100        94.583070       345.377200       -32.639920        59.972160         0.019913
1643124124.0000    310609.800000      -164.486500    311227.200000        75.263590    310010.800000       -44.716590       329.593500      -151.305700       377.471100        84.328510       344.315200       -42.814270        59.971950         0.032959
1643124125.0000    310594.000000      -175.202100    311236.300000        64.523310    309874.600000       -55.442970       330.248000      -162.290600       378.556300        73.450410       345.612300       -53.629830        59.971160         0.105286
1643124126.0000    310542.800000       173.553100    311203.100000        53.304090    309964.300000       -66.680050       329.924100      -173.357000       379.039900        62.339930       345.373300       -64.986230        59.967740        -0.018768
1643124127.0000    310453.200000       161.911500    311059.800000        41.665700    309876.200000       -78.314680       331.106000       175.035100       379.038500        50.810230       345.686400       -76.267720        59.967760         0.043488
1643124128.0000    310596.000000       150.769500    311245.000000        30.503420    309948.400000       -89.471400       330.169700       163.757700       378.441400        39.525100       345.495900       -87.658130        59.969180         0.013504
1643124129.0000    310615.500000       139.176700    311206.700000        18.904100    309878.400000      -101.059800       330.079700       152.186800       378.750300        28.000070       345.498000       -99.252020        59.968910         0.029755
1643124130.0000    310647.900000       127.918600    311257.700000         7.670478    310051.900000      -112.309400       327.937700       141.001200       376.195600        16.736810       342.995700      -110.458800        59.969090         0.037537
1643124131.0000    310445.100000       116.273800    311012.900000        -3.999674    309704.400000      -123.959900       329.699000       129.437300       378.154800         5.272026       345.842800      -121.939000        59.967130         0.030899
1643124132.0000    310468.500000       103.965700    311141.400000       -16.312260    309765.700000      -136.285600       330.268200       117.049600       378.701800        -7.236362       345.033900      -134.395400        59.965800         0.006866
1643124133.0000    310494.500000        91.021940    311153.100000       -29.239640    309862.700000      -149.221800       329.783400       104.021200       378.104600       -20.140660       345.703100      -147.352400        59.962250        -0.096130
1643124134.0000    310478.800000        77.482990    311031.900000       -42.803230    309679.000000      -162.753700       329.870500        90.591380       377.854700       -33.675160       345.077300      -160.759400        59.961330        -0.020828
1643124135.0000    310605.700000        63.221390    311197.000000       -57.041790    309904.500000      -177.009900       329.097600        76.287040       377.180100       -47.878850       344.215000      -175.113600        59.960390         0.017853
1643124136.0000    310547.500000        48.728460    311206.100000       -71.532120    309900.800000       168.489600       330.141900        61.814090       378.048500       -62.453530       345.115800       170.420200        59.959220        -0.024033
1643124137.0000    310650.700000        34.664410    311228.900000       -85.594410    309982.600000       154.435100       329.428300        47.523010       377.342700       -76.753670       344.290400       156.159000        59.961990         0.017395
1643124138.0000    310716.300000        21.218680    311294.500000       -99.035910    310051.300000       140.993700       329.516500        34.314020       376.957800       -90.022060       344.237500       142.962800        59.964120        -0.013504
1643124139.0000    310468.000000         8.499662    311103.200000      -111.776200    309758.900000       128.254600       330.738600        21.668690       379.500800      -102.599700       346.154100       130.313800        59.965700         0.042572
1643124140.0000    310503.600000        -4.103852    311183.300000      -124.352800    309946.500000       115.660600       330.261200         9.242794       378.867700      -115.097900       344.900900       117.761900        59.966480         0.040741
1643124141.0000    310563.300000       -16.126120    311157.500000      -136.388000    309890.200000       103.645100       331.714300        -3.163935       380.402300      -127.465200       346.423300       105.469300        59.967910         0.041656
1643124142.0000    310478.700000       -27.903260    311086.000000      -148.161500    309833.000000        91.866930       330.970400       -14.653600       380.569000      -138.914600       346.945300        93.787510        59.967630         0.037537
1643124143.0000    310568.600000       -39.037080    311208.700000      -159.284700    309982.900000        80.730420       331.079200       -25.989080       379.156800      -150.154400       346.259600        82.617160        59.969250         0.007553
1643124144.0000    310667.800000       -49.529560    311238.700000      -169.791400    309966.800000        70.242160       330.401100       -36.411000       378.143800      -160.632000       345.350900        72.253820        59.971380        -0.001602
1643124145.0000    310570.100000       -59.705530    311132.800000      -179.977500    309861.200000        60.062660       330.882400       -46.677640       378.223800      -170.787400       345.767600        62.243900        59.971810        -0.027237
1643124146.0000    310553.500000       -69.345590    311136.900000       170.402000    309939.300000        50.429220       331.286500       -56.341840       379.307500       179.421100       346.938000        52.303420        59.974860         0.051498
1643124147.0000    310716.800000       -78.894100    311271.000000       160.848600    309995.400000        40.869200       330.919000       -65.968530       379.499200       169.784000       346.086900        42.687840        59.973350        -0.005264
1643124148.0000    310592.000000       -88.266110    311220.700000       151.468700    309910.400000        31.495510       330.243700       -75.268650       378.504900       160.491200       345.091200        33.327120        59.974020        -0.028381
1643124149.0000    310608.500000       -97.311090    311216.000000       142.417200    309913.700000        22.448650       331.411100       -84.378200       379.619500       151.392500       346.416600        24.331250        59.975280        -0.019913
1643124150.0000    310663.600000      -105.880200    311256.300000       133.848100    309934.600000        13.883990       332.086600       -92.880840       379.986900       142.856000       346.672400        15.770470        59.977620         0.002518
1643124151.0000    310472.000000      -113.426300    311084.200000       126.327200    309876.100000         6.348516       330.828700      -100.199900       379.599900       135.618600       345.955100         8.411831        59.980030         0.015793
1643124152.0000    310625.400000      -120.364200    311253.700000       119.382700    310000.800000        -0.599492       330.270800      -107.256000       378.656000       128.479600       345.088400         1.343343        59.981350        -0.015564
1643124153.0000    310667.900000      -126.776200    311320.100000       112.963100    310004.800000        -7.016603       330.962600      -113.683600       379.475900       122.038000       346.453800        -5.171430        59.982760        -0.004807
1643124154.0000    310620.400000      -132.594100    311253.300000       107.135100    309904.100000       -12.834410       331.706500      -119.594400       380.695700       116.128100       347.077200       -11.060640        59.985380         0.010529
1643124155.0000    310519.600000      -137.754500    311167.800000       101.978100    309837.000000       -17.999550       331.958300      -124.393900       380.203300       111.258400       346.530400       -15.876050        59.988630         0.037994
1643124156.0000    310464.500000      -141.833300    311113.400000        97.919620    309877.800000       -22.066940       330.499200      -128.465700       378.704100       107.245300       345.776400       -19.909340        59.988340         0.000229
1643124157.0000    310625.600000      -145.776200    311279.900000        93.960120    309969.800000       -26.014670       332.021900      -132.648100       380.529100       103.078900       347.264400       -24.025490        59.991040         0.038910
1643124158.0000    310631.800000      -149.207900    311263.400000        90.530780    309963.400000       -29.441810       332.958300      -136.276100       380.793000        99.492580       347.952100       -27.565130        59.992290         0.027008
1643124159.0000    310562.300000      -151.624000    311200.100000        88.150090    309817.900000       -31.848910       332.821600      -138.640700       380.864600        97.075000       347.734700       -30.057560        59.993800        -0.009384
1643124160.0000    310612.300000      -153.406100    311269.000000        86.347470    309867.500000       -33.624080       332.769300      -140.378700       381.564700        95.426460       348.587600       -31.712520        59.997590         0.005951
1643124161.0000    310558.200000      -154.286200    311180.300000        85.461430    309856.600000       -34.523650       333.446000      -141.096500       381.840300        94.611430       348.240400       -32.492490        59.996960        -0.062943
1643124162.0000    310448.600000      -154.906500    311059.000000        84.836200    309753.000000       -35.140960       332.741100      -141.850200       381.901500        94.028410       348.676100       -33.169020        59.997450        -0.065231
1643124163.0000    310449.600000      -155.014700    311016.500000        84.725940    309750.400000       -35.238680       333.238100      -141.856700       381.861100        93.882850       348.427100       -33.241200        60.001160         0.045319
1643124164.0000    310470.500000      -154.980200    311138.000000        84.754650    309815.400000       -35.221210       332.004900      -141.960300       380.976000        93.908490       347.984300       -33.310300        60.000650        -0.000229
1643124165.0000    310544.700000      -154.945000    311224.300000        84.793400    309936.100000       -35.187160       332.659000      -142.090400       381.240000        93.780040       348.655000       -33.377060        59.999150        -0.019684
1643124166.0000    310422.700000      -155.384200    310924.900000        84.346430    309656.100000       -35.604270       334.224400      -142.258900       381.512300        93.549610       349.418200       -33.407330        59.997540        -0.021286
1643124167.0000    310398.300000      -156.360400    311090.000000        83.361790    309682.100000       -36.617910       333.711000      -143.395000       381.970000        92.406180       348.827400       -34.676830        59.999360         0.086975
1643124168.0000    310419.800000      -157.464500    311177.300000        82.255970    309719.500000       -37.727330       332.014200      -144.557800       380.424100        91.320080       347.631700       -35.832040        59.994780        -0.001602
1643124169.0000    310324.900000      -159.493900    310976.000000        80.269170    309810.900000       -39.721110       333.089800      -146.450400       382.286300        89.254990       348.917100       -37.865420        59.993590         0.007324
1643124170.0000    310405.700000      -161.978500    310967.900000        77.755690    309682.500000       -42.207910       332.017500      -148.808800       380.724000        86.932010       347.335300       -40.193220        59.991850         0.016022
1643124171.0000    310549.000000      -165.197100    311206.200000        74.542110    309777.300000       -45.442100       333.915700      -152.425400       382.593000        83.342700       348.950800       -43.689360        59.989830        -0.038681
1643124172.0000    310486.400000      -169.170100    311029.300000        70.583790    309595.900000       -49.387570       333.866700      -156.255900       381.860300        79.549040       348.998700       -47.526490        59.986410        -0.065002
1643124173.0000    310529.700000      -173.871400    311198.200000        65.863920    309893.600000       -54.110500       334.669700      -161.198500       383.465600        74.565830       349.913200       -52.611180        59.986370         0.021286
1643124174.0000    310383.900000      -179.810100    311102.100000        59.901620    309681.900000       -60.074460       335.424300      -166.929900       383.525900        68.673280       349.706100       -58.281460        59.982460        -0.031357
1643124175.0000    310496.100000       173.575000    311148.000000        53.312290    309886.300000       -66.665830       334.777200      -173.775800       382.912300        62.071800       349.828000       -65.028020        59.980120        -0.031128
1643124176.0000    310533.200000       166.113200    311168.300000        45.849620    309914.400000       -74.122770       333.998300       178.723100       382.152500        54.475140       349.267700       -72.537960        59.978150        -0.017166
1643124177.0000    310448.900000       158.340700    311038.600000        38.058260    309701.000000       -81.899020       334.839700       171.155800       382.425600        46.969380       349.525600       -80.048690        59.977880        -0.046463
1643124178.0000    310432.300000       150.332000    311036.900000        30.065740    309789.800000       -89.901860       333.790100       163.192000       383.035700        38.969040       349.534000       -88.321440        59.977160         0.045319
1643124179.0000    310496.500000       141.525600    311339.900000        21.299830    309771.300000       -98.663030       334.308800       154.202300       383.015000        29.960160       349.745800       -97.206150        59.975680         0.056076
