Terminal: LT 525  C.NOVOS - BLUMENAU C1
Tensão base: 525 kV
SOC inicial: 1643124120
SOC final: 1643124179
Taxa: 1 fasores/s
Total de frames faltantes: - 

Tempo_(SOC)           VA_mod_(V)     VA_ang_(graus)     VB_mod_(V)     VB_ang_(graus)     VC_mod_(V)     VC_ang_(graus)     IA_mod_(A)     IA_ang_(graus)     IB_mod_(A)     IB_ang_(graus)     IC_mod_(A)     IC_ang_(graus)     Frequência        Delta_Freq     Faltante
1643124120.0000       268.765000       -68.097330       274.448000       168.965300       256.509100        50.076010    313764.900000      -128.949700    314688.700000       110.955400    313763.300000        -9.169882        59.968460         0.249023
1643124121.0000       269.621900       -77.184190       274.136800       160.610300       259.462200        41.485810    313735.700000      -138.069700    314626.300000       101.846100    313769.900000       -18.279890        59.988660         0.684128
1643124122.0000       269.241100       -86.703050       273.453200       150.899700       259.048800        31.835120    313743.100000      -147.512800    314682.600000        92.397450    313775.500000       -27.732880        59.974920        -0.185623
1643124123.0000       270.175200       -96.561040       275.532000       141.066400       259.678000        21.897990    313736.500000      -157.424700    314666.100000        82.515500    313896.400000       -37.632340        60.009780         1.023560
1643124124.0000       269.982000      -106.608100       274.323100       130.816000       258.879800        11.947290    313799.500000      -167.606400    314709.200000        72.317700    313898.700000       -47.814760        59.953860        -1.053314
1643124125.0000       269.032400      -117.877300       274.676800       119.387400       257.397500         0.234714    313769.900000      -178.327300    314691.100000        61.570170    313729.600000       -58.555100        59.944820        -0.842285
1643124126.0000       269.230300      -128.910000       275.325200       108.360000       257.712600       -10.860250    313741.200000       170.432000    314678.800000        50.353890    313837.100000       -69.784730        59.981640        -0.017166
1643124127.0000       268.930800      -140.599000       272.551500        96.963750       257.664300       -21.808960    313657.800000       158.780400    314561.700000        38.716260    313780.300000       -81.420860        59.988950         0.734253
1643124128.0000       268.797200      -151.813100       273.590400        85.561770       257.385700       -33.423550    313792.600000       147.645200    314711.700000        27.553310    313818.200000       -92.576420        59.956370         0.126343
1643124129.0000       267.258400      -162.939500       272.812900        74.322440       256.401600       -44.830110    313768.400000       136.055900    314689.900000        15.952430    313730.600000      -104.167300        59.977230         0.469208
1643124130.0000       269.899000      -174.008500       274.142500        63.493130       258.806900       -55.478140    313843.500000       124.807900    314751.300000         4.734618    313956.300000      -115.397300        59.989660        -0.356827
1643124131.0000       267.555400       173.874900       274.101800        51.253180       257.817100       -68.007610    313630.300000       113.150200    314518.000000        -6.948719    313607.600000      -127.070600        59.988540         1.396179
1643124132.0000       267.758100       161.607500       273.207000        38.807910       255.767600       -80.145450    313646.500000       100.843300    314610.700000       -19.262850    313636.100000      -139.391300        59.936160        -0.357971
1643124133.0000       266.339800       148.606800       272.971200        26.148470       257.112100       -93.179070    313646.300000        87.901090    314660.900000       -32.185870    313739.000000      -152.327900        59.972490         2.312622
1643124134.0000       267.492200       135.295900       273.058800        12.584700       256.452200      -106.436700    313651.000000        74.363910    314528.300000       -45.746780    313568.500000      -165.858900        59.897640        -1.658249
1643124135.0000       268.722900       121.211400       273.503600        -1.472440       257.558000      -120.543400    313782.000000        60.107220    314685.200000       -59.982270    313802.900000       179.894000        59.953660        -0.305557
1643124136.0000       268.073300       106.836700       272.004000       -15.607420       256.804600      -134.576400    313753.400000        45.605830    314673.400000       -74.475740    313827.600000       165.389100        59.951580        -0.562363
1643124137.0000       267.330000        92.221570       271.922100       -30.478060       256.030000      -149.403000    313800.900000        31.547040    314659.900000       -88.539500    313819.700000       151.337600        59.997710         1.526184
1643124138.0000       268.232000        79.232450       271.757500       -43.227920       257.427500      -162.023900    313869.800000        18.103330    314759.800000      -101.975200    313946.300000       137.895500        59.937440        -1.833801
1643124139.0000       267.946000        65.917810       273.597600       -56.783260       257.221300      -175.983600    313674.600000         5.371812    314605.800000      -114.732100    313636.500000       125.143300        59.939380        -0.904541
1643124140.0000       268.528700        53.772380       273.542200       -68.849920       257.567200       172.149900    313735.300000        -7.225351    314689.000000      -127.299200    313839.700000       112.559000        59.965530        -0.065918
1643124141.0000       267.100600        40.763110       272.255700       -81.907380       255.875600       159.125900    313713.200000       -19.263210    314606.400000      -139.348100    313737.000000       100.527200        59.968160         0.059738
1643124142.0000       266.179200        29.578700       273.532200       -93.170610       255.544000       147.470000    313665.000000       -31.030570    314584.500000      -151.122600    313694.600000        88.750920        59.972580         0.478363
1643124143.0000       268.700100        18.416750       274.084100      -104.066900       258.248600       136.812000    313740.800000       -42.164950    314684.400000      -162.237800    313850.700000        77.617970        59.981300         0.411072
1643124144.0000       268.192000         8.247920       272.842000      -114.101200       257.542800       126.825200    313850.300000       -52.651580    314734.300000      -172.735100    313865.800000        67.139790        59.967240         0.231857
1643124145.0000       267.176200        -2.267233       271.226900      -124.508100       257.209500       116.584600    313755.900000       -62.833870    314623.100000       177.079400    313766.400000        56.955290        59.991020         0.534897
1643124146.0000       268.027500       -12.238980       272.473100      -134.713300       257.111700       106.251300    313711.800000       -72.480860    314590.700000       167.442500    313787.400000        47.312920        59.994070         1.230011
1643124147.0000       267.850200       -21.616540       273.181100      -144.144200       256.945400        96.833620    313846.300000       -82.017460    314738.500000       157.892600    313870.900000        37.766690        59.966920        -0.273972
1643124148.0000       268.395100       -31.069060       272.873400      -153.852300       256.703200        87.254730    313761.600000       -91.391430    314690.300000       148.518700    313795.300000        28.387550        59.945520        -1.162949
1643124149.0000       268.221300       -40.027680       273.180900      -162.800800       256.708100        78.244680    313783.500000      -100.441000    314684.200000       139.461000    313762.600000        19.338020        59.974040        -0.936585
1643124150.0000       267.739600       -48.408890       272.209600      -171.207600       255.444700        69.894070    313838.100000      -109.013800    314708.600000       130.890200    313792.800000        10.772680        59.961620        -0.687103
1643124151.0000       268.330200       -55.777940       273.475200      -178.389000       257.596600        62.542980    313682.300000      -116.553900    314563.700000       123.373800    313772.200000         3.238584        60.001270         0.858078
1643124152.0000       268.874700       -62.515850       273.480800       174.924400       257.742000        55.997980    313813.300000      -123.485900    314727.900000       116.433600    313885.000000        -3.700967        59.974200        -1.353149
1643124153.0000       268.249000       -69.481450       273.795100       168.003600       258.278100        48.814640    313819.300000      -129.901600    314790.400000       110.008500    313873.800000       -10.127170        59.995560         0.717087
1643124154.0000       268.384500       -75.562160       274.109500       161.627600       256.494400        42.484970    313762.400000      -135.728900    314707.800000       104.170800    313749.800000       -15.953350        59.989250        -0.270767
1643124155.0000       268.330100       -80.026350       273.225600       157.438800       257.193500        38.484970    313733.100000      -140.886400    314676.100000        99.020300    313755.800000       -21.111040        59.986480         0.419083
1643124156.0000       269.875000       -84.368600       275.476700       153.280200       259.957200        33.984350    313669.400000      -144.960800    314614.700000        94.965560    313778.200000       -25.175950        59.981780        -0.230255
1643124157.0000       269.479500       -88.520900       274.376900       149.109700       258.884300        29.965460    313805.300000      -148.908900    314768.300000        91.001950    313869.200000       -29.129290        60.011570         0.772705
1643124158.0000       268.996600       -92.174640       273.943600       145.440400       258.286200        26.258540    313784.900000      -152.347000    314726.700000        87.566900    313833.700000       -32.563140        60.003770         0.776367
1643124159.0000       268.183600       -95.057880       272.278700       142.406800       257.487800        23.521200    313653.600000      -154.751400    314587.700000        85.172800    313762.200000       -34.966910        59.965260        -1.017838
1643124160.0000       268.827500       -96.473300       274.789800       140.957500       258.040100        21.713540    313757.000000      -156.535900    314683.000000        83.375310    313790.200000       -36.753330        59.979820        -0.390701
1643124161.0000       270.012800       -97.789560       274.888900       139.694800       258.886900        20.633800    313717.700000      -157.427300    314671.200000        82.487100    313767.500000       -37.646660        59.993370        -0.348129
1643124162.0000       267.222100       -98.017900       274.358200       139.245300       256.614100        19.875010    313607.000000      -158.043500    314553.400000        81.866250    313631.500000       -38.267770        60.000500        -0.571289
1643124163.0000       267.713700       -98.474130       272.902100       138.676100       255.513600        19.610140    313602.200000      -158.157100    314479.100000        81.753460    313602.100000       -38.368040        59.984460         0.261154
1643124164.0000       266.789000       -98.288870       273.516100       139.142600       256.874100        19.744840    313627.800000      -158.117800    314613.100000        81.787580    313652.500000       -38.348850        59.986000         0.513840
1643124165.0000       267.795600       -98.670850       273.545900       139.009700       258.484800        19.614700    313690.300000      -158.088200    314681.300000        81.829200    313770.500000       -38.313100        59.967490        -0.649796
1643124166.0000       268.976100       -99.157570       273.313700       138.540500       258.934000        19.531730    313583.200000      -158.534800    314405.300000        81.373190    313577.000000       -38.740700        60.020820         1.143265
1643124167.0000       267.820200      -100.078100       273.678800       137.599500       258.231900        18.275750    313525.100000      -159.508300    314573.000000        80.390430    313553.100000       -39.750970        59.984460        -0.371704
1643124168.0000       268.064600      -101.227600       275.047100       136.527600       259.168400        16.861300    313561.100000      -160.602600    314651.300000        79.292320    313596.500000       -40.853680        59.999110        -0.214005
1643124169.0000       267.838800      -103.300900       273.049200       134.395700       257.445400        15.112210    313468.000000      -162.643000    314441.700000        77.299640    313670.600000       -42.850510        59.991840        -0.229340
1643124170.0000       269.894300      -105.383500       274.700700       132.056800       259.061900        13.109200    313595.600000      -165.120400    314460.400000        74.788120    313583.800000       -45.332290        60.003020         1.082382
1643124171.0000       269.048600      -109.152500       273.979200       128.301100       257.848400         9.090298    313656.600000      -168.342200    314622.700000        71.561450    313672.600000       -48.569870        60.008070         0.967484
1643124172.0000       269.270800      -113.170900       274.457300       124.354500       258.212900         5.229524    313602.100000      -172.307300    314433.100000        67.595410    313550.100000       -52.520620        60.016980         1.173706
1643124173.0000       269.134900      -118.246700       274.269500       119.079600       257.897400        -0.064560    313680.400000      -177.024000    314623.000000        62.885590    313706.600000       -57.249130        59.981890        -0.657349
1643124174.0000       269.234900      -124.172700       273.801200       113.078900       256.823000        -5.827824    313555.900000       177.027300    314544.600000        56.921880    313522.100000       -63.210160        59.979470         0.099564
1643124175.0000       268.653900      -130.628400       273.405600       106.815000       258.306200       -12.283250    313624.600000       170.419300    314566.800000        50.338060    313699.200000       -69.800430        59.963860        -0.547485
1643124176.0000       269.074100      -138.459100       273.674700        99.087940       258.353200       -19.922730    313655.800000       162.957700    314569.800000        42.879280    313725.000000       -77.258110        59.960340        -0.186768
1643124177.0000       269.563800      -145.631500       274.078900        91.978990       258.793900       -27.108060    313618.000000       155.186500    314494.700000        35.083020    313566.700000       -85.032780        59.991520         0.880280
1643124178.0000       268.353200      -154.033500       274.668200        83.233730       257.482800       -35.972480    313563.800000       147.178600    314467.300000        27.088950    313582.000000       -93.038820        59.989100         0.272369
1643124179.0000       268.306700      -162.911900       274.285800        74.522280       257.803100       -44.721310    313635.500000       138.401300    314584.200000        18.316360    313691.800000      -101.819300        59.972860        -0.135498
