Terminal: LT 525  IVAIPORA ELS - LONDRINA ESU C2
Tensão base: 525 kV
SOC inicial: 1643124120
SOC final: 1643124179
Taxa: 1 fasores/s
Total de frames faltantes: - 

Tempo_(SOC)           VA_mod_(V)     VA_ang_(graus)     VB_mod_(V)     VB_ang_(graus)     VC_mod_(V)     VC_ang_(graus)     IA_mod_(A)     IA_ang_(graus)     IB_mod_(A)     IB_ang_(graus)     IC_mod_(A)     IC_ang_(graus)     Frequência        Delta_Freq     Faltante
1643124120.0000    313455.800000      -105.757500    313840.500000       133.945300    312969.100000        14.065780       308.461500        59.655300       305.519700       -60.591480       305.601300      -178.272100        59.974690         0.002060
1643124121.0000    313323.400000      -114.854100    313830.900000       124.866100    312962.800000         4.962399       308.598100        50.492540       305.150700       -69.798290       305.770200       172.655600        59.974370        -0.031815
1643124122.0000    313317.500000      -124.295700    313685.100000       115.416500    312854.100000        -4.459758       307.671000        41.045960       304.639500       -79.332360       305.033900       163.089800        59.971740        -0.054703
1643124123.0000    313385.300000      -134.254100    313915.000000       105.464100    313035.000000       -14.440740       307.575100        30.820620       303.686600       -89.445610       304.445400       153.018000        59.972100        -0.011215
1643124124.0000    313455.600000      -144.449100    313904.700000        95.267680    313047.200000       -24.625380       307.184300        20.676220       303.989000       -99.636390       304.260300       142.840800        59.971530         0.027237
1643124125.0000    313421.900000      -155.155400    313861.100000        84.543040    312940.000000       -35.336970       306.208500         9.998959       303.161800      -110.279500       303.382100       132.072900        59.970140         0.048981
1643124126.0000    313295.100000      -166.381600    313820.800000        73.324930    312886.200000       -46.575440       307.066800        -1.129380       303.688400      -121.395000       304.383200       121.037000        59.968410        -0.008011
1643124127.0000    313437.800000      -177.982900    313835.800000        61.730440    312987.400000       -58.154120       307.388600       -12.711440       304.272600      -133.037500       304.564400       109.485800        59.966720        -0.047150
1643124128.0000    313465.800000       170.821800    313872.700000        50.540700    313052.300000       -69.345190       305.921700       -24.034450       302.809400      -144.290300       303.372100        98.097020        59.968490        -0.059738
1643124129.0000    313407.700000       159.303000    313869.900000        39.006020    312937.300000       -80.884600       308.392500       -35.274220       304.993000      -155.548000       305.429900        86.803780        59.968620         0.052185
1643124130.0000    313512.700000       147.976400    314009.700000        27.696170    313158.800000       -92.205130       306.799500       -46.700060       303.531800      -167.052800       303.804000        75.364070        59.970860         0.056076
1643124131.0000    313212.000000       136.373900    313681.300000        16.078880    312793.500000      -103.818300       307.515700       -58.273930       304.232400      -178.602300       304.516300        63.843110        59.965440        -0.062027
1643124132.0000    313210.500000       124.073100    313712.400000         3.768094    312751.900000      -116.118100       307.642500       -70.536160       305.015200       169.116100       304.917000        51.492140        59.964530        -0.004578
1643124133.0000    313299.500000       111.140300    313788.700000        -9.158235    312855.200000      -129.052400       307.369100       -83.559270       304.150500       156.136900       304.182000        38.543240        59.963260        -0.043716
1643124134.0000    313188.800000        97.593810    313699.300000       -22.710960    312725.600000      -142.604900       307.893500       -97.174480       304.775800       142.534600       305.329600        24.902670        59.959470        -0.043030
1643124135.0000    313401.600000        83.313710    313836.100000       -36.984280    312926.800000      -156.868500       307.225900      -111.349200       303.868500       128.314200       304.630900        10.720500        59.959870         0.000687
1643124136.0000    313405.900000        68.851200    313868.100000       -51.447250    312947.200000      -171.333000       306.547700      -125.849900       303.415900       113.904300       303.955600        -3.686257        59.960750         0.008926
1643124137.0000    313393.600000        54.770370    313851.200000       -65.514660    312988.100000       174.593300       306.858500      -139.777200       303.078500        99.949360       303.539900       -17.577040        59.960630        -0.042801
1643124138.0000    313525.800000        41.335260    313983.300000       -78.947800    313125.100000       161.157800       307.693100      -152.999000       304.490700        86.672970       304.836400       -30.844990        59.965210         0.036850
1643124139.0000    313384.900000        28.603890    313850.200000       -91.693680    312921.200000       148.417400       307.117200      -166.056400       303.880200        73.754010       304.773000       -43.866710        59.966500         0.087891
1643124140.0000    313387.800000        16.003050    313887.500000      -104.283400    312994.300000       135.818400       307.205400      -178.533900       303.732700        61.263360       304.815800       -56.275380        59.967060         0.069351
1643124141.0000    313401.600000         3.984118    313851.800000      -116.313300    312918.000000       123.803300       307.966900       169.451900       304.259200        49.234630       305.129300       -68.344110        59.967130         0.033875
1643124142.0000    313370.100000        -7.777290    313826.500000      -128.070800    312937.500000       112.038200       307.766400       157.702700       304.110800        37.420070       305.077500       -80.185410        59.967720         0.002747
1643124143.0000    313507.300000       -18.941310    313957.900000      -139.227000    313116.700000       100.877400       306.628400       146.596200       302.863500        26.336400       303.751400       -91.225450        59.970480         0.011902
1643124144.0000    313515.500000       -29.435620    313918.900000      -149.730900    313040.200000        90.388530       307.155100       136.068600       303.360400        15.800180       304.200700      -101.714500        59.971080        -0.005951
1643124145.0000    313366.600000       -39.583030    313791.000000      -159.867900    312947.400000        80.243420       307.866800       126.076600       304.494400         5.837625       305.542300      -111.690300        59.971940        -0.018539
1643124146.0000    313356.200000       -49.238890    313708.700000      -169.520400    312914.000000        70.599690       306.858000       116.311000       303.646400        -3.893350       304.205500      -121.477400        59.972990         0.015564
1643124147.0000    313427.800000       -58.790840    313857.600000      -179.082400    312978.700000        61.035760       307.557400       106.825800       303.837400       -13.423860       304.553000      -130.939800        59.973410         0.009842
1643124148.0000    313424.500000       -68.190050    313794.500000       171.512000    312894.100000        51.642730       306.576100        97.230470       303.475300       -23.036510       303.785200      -140.616200        59.975350         0.062027
1643124149.0000    313405.700000       -77.224300    313837.700000       162.476300    312915.200000        42.598880       306.735200        88.174640       303.646500       -32.051050       304.415500      -149.685200        59.975140         0.039368
1643124150.0000    313545.600000       -85.748700    313927.300000       153.954800    313061.400000        34.077640       307.517200        79.795630       303.643600       -40.547760       304.350600      -158.063600        59.978230         0.049210
1643124151.0000    313521.800000       -93.277140    313960.100000       146.441300    313116.600000        26.547850       307.654900        72.204430       303.716300       -48.121830       304.578300      -165.522900        59.981590         0.065231
1643124152.0000    313578.200000      -100.243200    314029.300000       139.465600    313148.100000        19.575800       306.950900        65.313440       303.418400       -54.951220       304.330600      -172.448600        59.981620        -0.003891
1643124153.0000    313382.800000      -106.667000    313913.600000       133.045100    313008.700000        13.144160       307.305400        58.887890       303.833400       -61.430700       304.363900      -178.931400        59.982910         0.012131
1643124154.0000    313469.500000      -112.506400    313903.300000       127.192100    312969.300000         7.311182       304.128100        52.615840       301.321500       -67.647350       301.691200       174.766400        59.983410        -0.032501
1643124155.0000    313507.800000      -117.599800    313940.900000       122.110700    313073.200000         2.228171       305.935400        47.748860       302.658200       -72.490330       303.120100       169.896500        59.986880        -0.018768
1643124156.0000    313539.800000      -121.747100    313995.800000       117.969800    313137.100000        -1.928999       303.068500        43.293760       299.724800       -76.923660       300.134100       165.531300        59.987800        -0.048065
1643124157.0000    313533.400000      -125.679900    313971.600000       114.034800    313104.700000        -5.856040       304.398000        39.581990       301.025600       -80.680340       301.737800       161.757600        59.990350         0.056305
1643124158.0000    313547.700000      -129.101100    313975.100000       110.611100    313131.100000        -9.277378       303.518100        36.134830       300.367100       -84.194310       300.616300       158.261800        59.991470        -0.046463
1643124159.0000    313476.300000      -131.494000    313958.000000       108.224200    313092.300000       -11.676450       304.458600        33.603930       300.963500       -86.669250       301.169800       155.795600        59.994680         0.029984
1643124160.0000    313571.500000      -133.271000    314007.300000       106.438000    313110.400000       -13.452920       303.912900        31.955460       300.514000       -88.328020       301.235700       154.128400        59.996880         0.013504
1643124161.0000    313454.400000      -134.189300    313897.400000       105.525000    313046.500000       -14.365070       303.783300        30.979730       300.738600       -89.322100       301.221700       153.137100        59.998250         0.004807
1643124162.0000    313410.900000      -134.750200    313901.100000       104.957900    312992.100000       -14.933200       304.575700        30.423950       301.263400       -89.825600       301.882400       152.570500        59.999400         0.020599
1643124163.0000    313286.200000      -134.845700    313709.500000       104.859900    312817.400000       -15.024340       305.788400        30.517090       302.640800       -89.826970       302.909700       152.577900        60.000290         0.004120
1643124164.0000    313399.500000      -134.840200    313860.200000       104.859600    312928.900000       -15.024550       304.553900        30.280500       301.330400       -90.049090       301.693100       152.423900        60.000490         0.031128
1643124165.0000    313378.900000      -134.840900    313865.800000       104.862900    312949.000000       -15.027340       304.324400        30.123290       300.725600       -90.221690       300.978300       152.320100        59.999650         0.017853
1643124166.0000    313259.800000      -135.247500    313686.100000       104.470000    312862.100000       -15.420020       305.737400        29.894990       302.235100       -90.490510       302.158900       151.994200        59.997760         0.005493
1643124167.0000    313273.000000      -136.235400    313800.200000       103.463400    312812.000000       -16.433480       305.983600        28.972510       302.927800       -91.243330       303.349700       151.107500        59.997600         0.013275
1643124168.0000    313380.700000      -137.380100    313899.900000       102.316900    312907.900000       -17.574900       303.121600        27.455870       300.066100       -92.753760       300.552200       149.578700        59.995030        -0.042343
1643124169.0000    313264.300000      -139.339600    313794.100000       100.374500    312904.000000       -19.527120       305.703500        25.680720       302.298700       -94.645450       302.763900       147.870900        59.993470         0.022659
1643124170.0000    313264.300000      -141.862900    313730.900000        97.848290    312866.100000       -22.040900       304.808000        23.011880       301.498600       -97.349880       301.860500       145.129200        59.990540        -0.046234
1643124171.0000    313223.200000      -145.093700    313755.000000        94.611240    312804.300000       -25.286060       305.136500        19.935570       301.772400      -100.258300       302.222300       142.150300        59.990350         0.007095
1643124172.0000    313277.500000      -149.019100    313740.000000        90.683380    312824.100000       -29.203940       305.752300        16.043920       302.258100      -104.251900       302.715200       138.198300        59.988150         0.014648
1643124173.0000    313202.300000      -153.787200    313753.000000        85.925160    312844.300000       -33.976120       305.942700        11.425930       302.468200      -108.881600       303.081100       133.570700        59.984920        -0.008698
1643124174.0000    313170.000000      -159.708800    313639.600000        79.994330    312708.800000       -39.892250       307.007900         5.595207       304.172900      -114.674300       304.403400       127.725400        59.981450        -0.007324
1643124175.0000    313218.100000      -166.317400    313711.300000        73.394470    312822.800000       -46.501400       306.309100        -1.054861       303.212300      -121.327400       303.579900       121.077600        59.981400         0.010757
1643124176.0000    313169.000000      -173.809300    313677.900000        65.912490    312819.500000       -53.988360       304.940700        -8.517040       301.655200      -128.831100       301.998800       113.601100        59.978820        -0.027466
1643124177.0000    313382.800000       178.441900    313799.600000        58.140840    312908.200000       -61.739360       304.285100       -16.443930       301.768200      -136.706600       301.463400       105.646800        59.978100         0.030899
1643124178.0000    313232.600000       170.439200    313657.400000        50.151310    312808.300000       -69.735220       305.083900       -24.337160       301.904500      -144.607900       302.418700        97.833600        59.978130         0.083084
1643124179.0000    313195.900000       161.655000    313732.600000        41.365620    312819.600000       -78.535130       305.132400       -32.972170       301.851100      -153.345900       302.586200        89.156620        59.974820        -0.000916
