Terminal: LT 500  RIO DAS EGUAS - BARREIRAS II CN5
Tensão base: 500 kV
SOC inicial: 1643124120
SOC final: 1643124179
Taxa: 1 fasores/s
Total de frames faltantes: - 

Tempo_(SOC)           VA_mod_(V)     VA_ang_(graus)     VB_mod_(V)     VB_ang_(graus)     VC_mod_(V)     VC_ang_(graus)     IA_mod_(A)     IA_ang_(graus)     IB_mod_(A)     IB_ang_(graus)     IC_mod_(A)     IC_ang_(graus)     Frequência        Delta_Freq     Faltante
1643124120.0000       785.794600       151.781200       793.441700        31.854570       787.327500       -87.666000    309089.300000       -38.538970    309736.000000      -159.047300    309466.300000        81.341030        59.974200        -0.018082
1643124121.0000       786.335500       142.761500       794.505500        22.894660       788.475800       -96.653350    309023.700000       -47.573440    309695.000000      -168.074000    309442.300000        72.306010        59.973290        -0.031128
1643124122.0000       787.109100       133.333000       795.319600        13.449670       788.624300      -106.090300    308965.300000       -57.014550    309673.300000      -177.515800    309382.700000        62.861770        59.973510         0.050812
1643124123.0000       787.244400       123.332900       795.271700         3.412669       789.285900      -116.107600    308969.200000       -67.008900    309663.600000       172.484100    309384.500000        52.861060        59.972470         0.042801
1643124124.0000       785.731600       112.962100       793.961200        -6.909565       788.495700      -126.442100    309052.200000       -77.340720    309717.400000       162.159300    309462.700000        42.536460        59.971000        -0.023575
1643124125.0000       786.647300       102.340900       794.256300       -17.538550       789.282500      -137.058900    308944.800000       -87.970570    309643.000000       151.533400    309368.400000        31.902320        59.969650         0.023804
1643124126.0000       787.113300        91.235730       794.624800       -28.655020       789.263700      -148.226100    308970.200000       -99.119090    309616.700000       140.374900    309357.500000        20.758170        59.967790        -0.017166
1643124127.0000       787.676300        79.681860       795.181800       -40.216050       789.801300      -159.710600    308983.400000      -110.700300    309647.500000       128.802500    309386.200000         9.178257        59.966910        -0.019913
1643124128.0000       783.922500        68.240550       791.758900       -51.684100       785.659700      -171.203200    309136.600000      -122.104900    309809.500000       117.396100    309558.000000        -2.228242        59.970710         0.095673
1643124129.0000       787.048200        57.053600       795.117900       -62.827450       788.790500       177.640300    308949.400000      -133.288800    309608.100000       106.208800    309331.000000       -13.411140        59.968380        -0.009613
1643124130.0000       786.723100        45.623550       794.703700       -74.290250       788.159600       166.151100    308948.800000      -144.766500    309631.700000        94.731030    309373.000000       -24.889960        59.967230         0.002518
1643124131.0000       786.296300        34.130240       794.904800       -85.802960       788.070900       154.670500    308858.300000      -156.259100    309561.200000        83.232950    309271.000000       -36.388210        59.966400        -0.051041
1643124132.0000       789.282000        22.001250       797.049200       -97.897720       791.264500       142.572900    308763.700000      -168.351800    309430.600000        71.148170    309188.700000       -48.472880        59.965530         0.011902
1643124133.0000       787.859100         8.901061       796.210900      -111.002200       789.641200       129.481000    308830.000000       178.546000    309496.100000        58.038990    309232.800000       -61.578280        59.963330         0.042114
1643124134.0000       786.522900        -4.742816       794.387600      -124.636500       788.496500       115.833100    308921.700000       164.901800    309589.100000        44.398600    309317.300000       -75.214970        59.961390        -0.003662
1643124135.0000       788.648000       -18.871140       796.618500      -138.803300       791.082000       101.676400    308823.100000       150.736300    309478.300000        30.231290    309203.100000       -89.384000        59.959560         0.009384
1643124136.0000       786.836900       -33.482540       794.433400      -153.389300       788.821000        87.100560    308949.400000       136.152600    309646.800000        15.651050    309360.900000      -103.971900        59.959770        -0.010071
1643124137.0000       788.485400       -47.393800       796.574300      -167.296100       790.351900        73.177940    308869.500000       122.243300    309573.800000         1.743594    309303.100000      -117.879800        59.962090         0.032043
1643124138.0000       790.502700       -60.694610       798.417200       179.453600       793.202400        59.902480    308749.300000       108.990200    309450.800000       -11.509790    309203.400000      -131.132700        59.963430         0.008240
1643124139.0000       789.071800       -73.560610       796.569300       166.582700       791.099400        47.051050    308851.600000        96.120250    309549.900000       -24.373000    309309.800000      -144.002300        59.965330         0.056076
1643124140.0000       791.659100       -85.959500       799.034300       154.143300       793.659600        34.609990    308722.300000        83.688090    309415.800000       -36.803840    309192.400000      -156.432800        59.965340         0.002747
1643124141.0000       789.773300       -98.065540       797.692700       142.023800       791.733500        22.467140    308798.400000        71.580920    309463.600000       -48.915920    309233.800000      -168.537800        59.966140         0.018082
1643124142.0000       792.035600      -109.814200       799.540400       130.311800       793.753400        10.790020    308728.700000        59.923580    309402.800000       -60.566720    309189.300000       179.804900        59.968200         0.005035
1643124143.0000       790.270800      -120.980600       798.437100       119.102900       792.113500        -0.414081    308844.700000        48.698380    309495.300000       -71.793940    309288.800000       168.581200        59.970410         0.037537
1643124144.0000       790.157300      -131.533600       797.531300       108.545800       791.798000       -10.959650    308830.300000        38.150480    309488.300000       -82.335580    309311.500000       158.038100        59.971950         0.020828
1643124145.0000       792.239900      -141.440500       799.366500        98.626620       793.844100       -20.867430    308726.100000        28.194920    309361.500000       -92.293760    309165.300000       148.083700        59.970400        -0.120392
1643124146.0000       792.567400      -151.177700       799.754300        88.930740       794.058500       -30.556580    308799.200000        18.519080    309435.800000      -101.976800    309202.500000       138.404500        59.971540        -0.068436
1643124147.0000       792.817300      -160.664800       801.012800        79.465160       795.238700       -40.083330    308748.700000         9.036284    309478.800000      -111.474900    309129.000000       128.901200        59.974880         0.075073
1643124148.0000       791.913800      -170.168500       800.337600        69.971280       794.533000       -49.649880    308802.100000        -0.479283    309543.100000      -120.993800    309197.400000       119.380000        59.974720         0.055161
1643124149.0000       790.449300      -179.276900       798.971200        60.891760       792.820600       -58.675290    308889.500000        -9.562859    309590.900000      -130.076600    309263.900000       110.304200        59.976140         0.039368
1643124150.0000       790.481500       172.197000       798.427800        52.323410       792.945700       -67.255440    308924.500000       -18.122390    309643.700000      -138.637300    309325.700000       101.742500        59.976320        -0.018082
1643124151.0000       787.895500       164.518500       796.184000        44.626980       790.637800       -74.879300    309013.200000       -25.748490    309713.400000      -146.267700    309378.500000        94.116810        59.980380         0.058594
1643124152.0000       789.855300       157.712400       798.210100        37.852350       791.925000       -81.756440    308899.900000       -32.581570    309599.900000      -153.099600    309247.000000        87.284000        59.981800         0.002747
1643124153.0000       788.183000       151.264300       796.240500        31.315220       790.689100       -88.210750    308990.100000       -39.051230    309676.400000      -159.564800    309347.900000        80.816950        59.982220        -0.002060
1643124154.0000       788.296100       145.192600       796.382800        25.251110       790.146000       -94.264990    309092.500000       -45.113230    309788.900000      -165.627300    309437.400000        74.755900        59.985270         0.044632
1643124155.0000       788.315900       140.146500       797.212200        20.248250       790.537500       -99.295640    309078.500000       -50.135300    309755.400000      -170.650300    309442.300000        69.733310        59.988020         0.076675
1643124156.0000       788.964600       135.816100       797.092300        15.945800       790.724400      -103.584300    309036.100000       -54.433200    309732.000000      -174.946900    309381.400000        65.436410        59.988660        -0.045547
1643124157.0000       790.887700       132.135300       798.230500        12.208090       792.376200      -107.349800    308963.500000       -58.176770    309630.200000      -178.688600    309322.300000        61.698880        59.988720        -0.045547
1643124158.0000       788.434900       128.633800       796.243500         8.704136       790.090900      -110.857500    309087.600000       -61.699670    309750.900000       177.788600    309448.100000        58.171170        59.991460        -0.046005
1643124159.0000       786.196000       126.047300       794.509400         6.161295       788.319600      -113.380600    309175.900000       -64.214070    309857.500000       175.271900    309542.500000        55.655400        59.992730        -0.037079
1643124160.0000       788.522600       124.445100       796.758100         4.534770       790.754800      -115.009100    309102.800000       -65.817350    309743.400000       173.662600    309424.700000        54.056330        59.996450        -0.005951
1643124161.0000       787.186200       123.353400       795.315000         3.452705       789.102500      -116.140200    309191.600000       -66.883190    309844.100000       172.603400    309558.100000        52.991210        59.998540         0.045319
1643124162.0000       789.228700       122.973100       797.854900         3.079479       791.622100      -116.522400    309149.800000       -67.308360    309786.300000       172.168400    309448.300000        52.565400        59.997810        -0.067749
1643124163.0000       788.253700       122.969000       797.023600         3.051416       790.661700      -116.519200    309119.300000       -67.297160    309762.800000       172.182300    309410.000000        52.576160        59.999840        -0.067749
1643124164.0000       788.887700       122.930100       797.479100         3.060281       791.124900      -116.512000    309129.400000       -67.313060    309771.800000       172.162100    309423.400000        52.555470        60.000220         0.024261
1643124165.0000       786.837600       122.712600       795.030600         2.790737       788.780800      -116.727500    309230.000000       -67.528610    309910.400000       171.946600    309529.300000        52.331560        60.003550         0.313568
1643124166.0000       788.895100       122.539200       797.092700         2.613684       790.811200      -116.905000    309010.800000       -67.693410    309687.400000       171.803200    309437.800000        52.183310        60.004390         0.187912
1643124167.0000       790.117900       121.699000       798.674500         1.770082       792.356400      -117.763100    309043.500000       -68.589640    309627.100000       170.910400    309416.300000        51.302310        59.995900        -0.026321
1643124168.0000       786.043200       120.101000       793.890000         0.182916       787.877100      -119.349500    309200.500000       -70.191260    309792.800000       169.315000    309609.900000        49.699660        59.995940         0.036392
1643124169.0000       786.939000       118.270400       794.401200        -1.620641       788.206600      -121.150300    309140.100000       -71.984280    309756.700000       167.513400    309531.000000        47.904000        59.993800        -0.021744
1643124170.0000       786.629900       115.661900       794.642800        -4.251069       788.096100      -123.737900    309155.800000       -74.599220    309734.800000       164.901900    309539.600000        45.294560        59.990750        -0.069580
1643124171.0000       787.698600       112.551000       795.331200        -7.378135       789.325600      -126.893300    309129.300000       -77.703540    309746.300000       161.799000    309519.900000        42.184550        59.992070         0.060654
1643124172.0000       789.309100       108.742400       797.313800       -11.170270       791.154800      -130.704700    309071.300000       -81.568720    309665.100000       157.933000    309469.000000        38.324380        59.987330        -0.008011
1643124173.0000       787.984600       103.876400       795.538900       -16.008010       789.566700      -135.529200    309075.600000       -86.385420    309725.500000       153.116200    309514.700000        33.501000        59.987090         0.089493
1643124174.0000       789.695800        98.258890       797.431300       -21.635900       791.677600      -141.190000    308953.000000       -92.030750    309561.300000       147.470300    309362.800000        27.855210        59.982150        -0.078278
1643124175.0000       788.481800        91.521440       796.316800       -28.384040       789.658700      -147.922800    309073.300000       -98.783700    309689.500000       140.719100    309483.100000        21.105800        59.980890         0.073471
1643124176.0000       787.642900        84.076760       795.965900       -35.855380       789.758100      -155.410200    309084.000000      -106.284300    309716.600000       133.217100    309503.800000        13.603150        59.979370         0.030212
1643124177.0000       786.587400        76.027660       794.786400       -43.834700       788.658000      -163.385000    309141.700000      -114.274800    309805.900000       125.238800    309639.200000         5.613252        59.978390         0.039368
1643124178.0000       787.278000        68.157090       795.112100       -51.744360       788.737300      -171.248200    309135.200000      -122.140400    309756.000000       117.363200    309550.300000        -2.252733        59.977970         0.027466
1643124179.0000       790.107600        59.615960       797.731000       -60.317330       791.705300      -179.801700    308935.600000      -130.726300    309596.800000       108.782700    309412.800000       -10.841520        59.974470        -0.007324
