Terminal: LT 525  IVAIPORA ELS - S.SANTIAGO C1
Tensão base: 525 kV
SOC inicial: 1643124120
SOC final: 1643124179
Taxa: 1 fasores/s
Total de frames faltantes: - 

Tempo_(SOC)           VA_mod_(V)     VA_ang_(graus)     VB_mod_(V)     VB_ang_(graus)     VC_mod_(V)     VC_ang_(graus)     IA_mod_(A)     IA_ang_(graus)     IB_mod_(A)     IB_ang_(graus)     IC_mod_(A)     IC_ang_(graus)     Frequência        Delta_Freq     Faltante
1643124120.0000    313370.500000      -105.776600    313760.000000       133.927700    312159.300000        14.060160       448.827800       -89.068480       447.295000       150.965000       458.079900        32.819210        59.974240        -0.003433
1643124121.0000    313239.400000      -114.872100    313741.800000       124.851200    312167.400000         4.953789       449.796500       -98.037530       448.745300       141.887900       458.219500        23.732260        59.973880        -0.057449
1643124122.0000    313232.400000      -124.314100    313578.200000       115.401200    312042.900000        -4.467728       448.712500      -107.445000       447.672400       132.678800       458.368500        14.365670        59.973140         0.015564
1643124123.0000    313302.000000      -134.272100    313811.300000       105.448500    312217.300000       -14.446880       446.981600      -117.497000       445.465700       122.522800       455.841100         4.376821        59.972170        -0.028839
1643124124.0000    313362.200000      -144.468000    313802.100000        95.251570    312246.600000       -24.631160       446.898300      -127.682400       445.465400       112.348400       455.778200        -5.839613        59.971790         0.035706
1643124125.0000    313342.200000      -155.173600    313758.700000        84.529860    312128.900000       -35.343930       447.317700      -138.360900       445.814200       101.642200       456.067000       -16.510810        59.970780         0.046921
1643124126.0000    313207.700000      -166.400000    313718.500000        73.309590    312080.300000       -46.583860       448.528100      -149.475300       446.650600        90.491780       456.626100       -27.620860        59.967610        -0.037537
1643124127.0000    313350.500000      -178.001100    313739.100000        61.716650    312166.100000       -58.160110       449.739000      -161.397000       447.933800        78.688170       459.156900       -39.450670        59.967540         0.005035
1643124128.0000    313365.600000       170.801900    313751.900000        50.523730    312235.800000       -69.352650       447.034700      -172.334900       446.429500        67.660680       456.444300       -50.625510        59.968420        -0.000916
1643124129.0000    313315.900000       159.286800    313757.400000        38.990760    312133.400000       -80.891760       451.014500       176.017400       449.850100        55.981490       459.772400       -62.153720        59.967900         0.024033
1643124130.0000    313434.800000       147.954600    313908.400000        27.681300    312341.700000       -92.214040       448.024100       164.760300       446.788300        44.698420       457.020900       -73.418760        59.969210         0.038223
1643124131.0000    313108.300000       136.352900    313586.000000        16.063640    311956.300000      -103.821900       448.932200       153.296000       447.311700        33.186880       457.135000       -84.901610        59.965510        -0.064316
1643124132.0000    313130.900000       124.053200    313603.800000         3.754135    311938.000000      -116.128600       449.325000       141.031200       448.212900        20.964670       458.157100       -97.159030        59.965300        -0.013275
1643124133.0000    313213.200000       111.118300    313691.500000        -9.173355    312038.900000      -129.059100       450.299000       127.972100       448.856400         7.962314       459.354000      -110.200100        59.963040        -0.036163
1643124134.0000    313102.900000        97.576850    313617.400000       -22.728130    311912.400000      -142.611700       450.121200       114.556400       448.514100        -5.550719       458.145000      -123.636700        59.961750         0.014877
1643124135.0000    313308.600000        83.296880    313745.800000       -36.999030    312119.500000      -156.876000       449.694600       100.151400       447.697800       -19.872460       458.399400      -138.008400        59.960110         0.016937
1643124136.0000    313321.500000        68.833210    313769.900000       -51.464090    312146.600000      -171.344100       450.505000        85.581760       448.480700       -34.405260       459.375600      -152.543900        59.959410        -0.044403
1643124137.0000    313297.600000        54.750390    313736.800000       -65.527410    312195.200000       174.584500       450.396600        71.626520       449.073000       -48.382950       459.001700      -166.566500        59.962120         0.031357
1643124138.0000    313430.200000        41.317150    313885.500000       -78.964050    312329.900000       161.150300       451.066600        58.092940       449.546600       -61.933430       459.738900       179.904500        59.964550         0.041199
1643124139.0000    313289.900000        28.584960    313742.700000       -91.710060    312114.800000       148.410100       449.650200        45.382660       448.311800       -74.642020       458.187800       167.172600        59.966500         0.083084
1643124140.0000    313302.500000        15.985850    313779.900000      -104.297500    312198.300000       135.810200       450.026400        32.826030       448.513800       -87.169230       458.932300       154.646800        59.966450         0.037537
1643124141.0000    313304.300000         3.967713    313746.800000      -116.329700    312109.400000       123.795800       450.484300        20.779140       448.520600       -99.223880       459.300300       142.692100        59.967720        -0.003662
1643124142.0000    313282.200000        -7.799646    313720.000000      -128.085100    312139.900000       112.033100       450.542800         8.941124       449.095400      -111.055400       459.259500       130.752300        59.967250         0.002060
1643124143.0000    313403.600000       -18.961150    313867.600000      -139.243400    312299.900000       100.870600       449.563300        -2.216474       448.186500      -122.181700       458.513700       119.606300        59.968740        -0.031357
1643124144.0000    313418.100000       -29.456150    313835.800000      -149.747000    312230.400000        90.381500       449.407500       -12.654340       447.645200      -132.630700       458.552300       109.214000        59.971060         0.004807
1643124145.0000    313288.400000       -39.600370    313682.600000      -159.882900    312132.400000        80.236020       451.031600       -22.761930       449.846500      -142.749700       460.234500        99.046420        59.973020         0.036392
1643124146.0000    313276.700000       -49.260120    313623.300000      -169.536600    312110.500000        70.592660       449.560500       -32.326300       448.018000      -152.287800       459.191100        89.498700        59.975100         0.095444
1643124147.0000    313365.300000       -58.809910    313757.000000      -179.097800    312180.300000        61.026170       450.419500       -42.000680       448.647700      -161.975500       459.526400        79.857120        59.973080        -0.023804
1643124148.0000    313349.300000       -68.206760    313685.500000       171.495500    312087.100000        51.636730       448.169800       -51.342850       446.747000      -171.260000       458.138300        70.576870        59.974380        -0.055389
1643124149.0000    313308.700000       -77.243860    313731.900000       162.462000    312104.100000        42.588420       448.760900       -60.392530       447.181600       179.612300       457.827700        61.461200        59.975640         0.007095
1643124150.0000    313455.900000       -85.770160    313817.300000       153.941400    312254.200000        34.070260       450.917000       -69.087880       449.211400       170.947100       459.457900        52.757470        59.977710         0.033646
1643124151.0000    313417.300000       -93.294490    313851.400000       146.425900    312304.600000        26.541700       450.285700       -76.693920       448.698800       163.317100       459.105700        45.144990        59.980990         0.044174
1643124152.0000    313510.600000      -100.262700    313936.700000       139.452200    312348.600000        19.569630       449.944000       -83.607430       448.353000       156.430400       458.938200        38.308980        59.980950        -0.032959
1643124153.0000    313285.800000      -106.683900    313805.600000       133.031900    312193.100000        13.134350       449.630300       -89.700130       448.207500       150.206700       457.710100        32.064480        59.982770         0.020599
1643124154.0000    313383.300000      -112.524300    313809.200000       127.178200    312173.900000         7.304471       446.903900       -95.723210       444.740600       144.266400       455.403200        26.135930        59.984960        -0.018768
1643124155.0000    313439.500000      -117.615400    313845.300000       122.096000    312260.400000         2.220261       448.359100      -100.999800       447.176500       139.078000       457.394000        20.848090        59.987420         0.020599
1643124156.0000    313437.300000      -121.764400    313896.500000       117.955800    312331.300000        -1.935460       444.046800      -105.007300       442.363000       134.965300       452.758200        16.832590        59.988340        -0.025864
1643124157.0000    313465.200000      -125.699000    313872.700000       114.018800    312328.700000        -5.861254       445.316500      -108.871300       444.029700       131.168100       454.249000        12.943580        59.990300         0.046005
1643124158.0000    313463.900000      -129.120000    313891.700000       110.596500    312320.800000        -9.285174       445.930200      -112.339000       444.734300       127.687000       454.969400         9.490676        59.992340        -0.007553
1643124159.0000    313385.800000      -131.512500    313863.500000       108.208600    312290.800000       -11.683260       445.665800      -114.756900       444.217000       125.203100       454.237000         7.051751        59.993320        -0.005722
1643124160.0000    313492.300000      -133.289400    313905.200000       106.423600    312309.500000       -13.457400       445.889500      -116.613900       444.598200       123.405400       454.823200         5.254976        59.996240        -0.023346
1643124161.0000    313382.300000      -134.207000    313809.200000       105.513000    312236.800000       -14.372600       444.124700      -117.401400       443.069600       122.629400       452.952800         4.397210        59.998020        -0.002975
1643124162.0000    313330.600000      -134.766200    313794.700000       104.944600    312178.200000       -14.941170       446.500200      -118.023700       444.828900       121.915500       454.612600         3.773362        59.998440        -0.057220
1643124163.0000    313200.700000      -134.862700    313596.800000       104.848200    312004.400000       -15.029030       446.897900      -117.980600       444.866400       122.017900       455.119300         3.882976        60.000550         0.021744
1643124164.0000    313341.100000      -134.856500    313751.800000       104.848200    312120.000000       -15.028230       445.730600      -118.056800       444.144000       121.959100       454.418800         3.801330        60.000350        -0.013962
1643124165.0000    313312.300000      -134.861300    313772.700000       104.850400    312141.000000       -15.034560       444.774300      -117.990100       443.293700       122.054400       453.806300         3.883264        59.998820        -0.004120
1643124166.0000    313173.600000      -135.268400    313592.200000       104.453400    312048.900000       -15.428360       445.930300      -118.354500       444.313900       121.607700       454.407500         3.442669        59.997020        -0.045547
1643124167.0000    313208.300000      -136.256400    313683.200000       103.447100    312014.600000       -16.440030       446.820100      -119.357000       445.579200       120.598400       455.570100         2.448017        59.997720         0.035934
1643124168.0000    313300.400000      -137.398900    313784.100000       102.303700    312095.600000       -17.580400       444.146300      -120.583200       442.597500       119.400000       452.997200         1.218504        59.995950        -0.015106
1643124169.0000    313203.600000      -139.358900    313701.600000       100.362300    312120.600000       -19.534160       446.772100      -122.557500       444.504300       117.464000       455.177300        -0.685168        59.994280         0.034332
1643124170.0000    313193.300000      -141.881000    313631.600000        97.834770    312055.600000       -22.048160       444.973400      -124.951100       443.520900       114.993900       453.510800        -3.168851        59.991000        -0.021973
1643124171.0000    313160.600000      -145.107500    313651.800000        94.597180    312004.200000       -25.289820       446.369200      -128.039800       444.878300       111.917500       454.680200        -6.215909        59.989670        -0.023346
1643124172.0000    313201.700000      -149.037200    313623.000000        90.670300    312016.000000       -29.208560       446.909700      -132.145300       444.929400       107.794200       455.232800       -10.306080        59.987970         0.006409
1643124173.0000    313145.100000      -153.805300    313641.200000        85.909740    312035.000000       -33.983620       445.970300      -136.603200       444.727500       103.278800       454.146100       -14.847050        59.985570        -0.018768
1643124174.0000    313093.700000      -159.729000    313519.900000        79.979580    311909.400000       -39.900150       447.286000      -142.629900       446.325700        97.359950       456.267100       -20.863700        59.982200         0.007782
1643124175.0000    313145.800000      -166.335100    313624.500000        73.377450    312012.400000       -46.509180       447.373000      -149.191800       445.520100        90.766460       455.934800       -27.425740        59.980210        -0.014877
1643124176.0000    313080.600000      -173.824300    313560.200000        65.898160    312001.700000       -53.994650       446.383700      -156.614700       445.381500        83.337020       455.121600       -34.825400        59.977290        -0.084686
1643124177.0000    313289.000000       178.422100    313695.300000        58.126300    312080.200000       -61.745700       446.260400      -164.707000       444.398700        75.262120       454.624800       -42.895500        59.979370         0.002975
1643124178.0000    313159.200000       170.420300    313578.100000        50.135360    312014.100000       -69.742120       446.634300      -172.559400       445.550400        67.454850       455.613800       -50.752010        59.978270         0.067749
1643124179.0000    313124.200000       161.637300    313620.100000        41.351260    312004.000000       -78.541830       447.569900       178.797900       446.220300        58.739000       456.120000       -59.397370        59.975880         0.043030
