Terminal: LT 500  RIBEIRAOZINHO - PARANATINGA C3
Tensão base: 500 kV
SOC inicial: 1643124120
SOC final: 1643124179
Taxa: 1 fasores/s
Total de frames faltantes: - 

Tempo_(SOC)           VA_mod_(V)     VA_ang_(graus)     VB_mod_(V)     VB_ang_(graus)     VC_mod_(V)     VC_ang_(graus)     IA_mod_(A)     IA_ang_(graus)     IB_mod_(A)     IB_ang_(graus)     Frequência        Delta_Freq     Faltante
1643124120.0000    299429.500000       -45.862640    298125.400000      -165.781400    298367.100000        74.383220      1038.472000       146.426600      1127.771000        25.858920        59.975000        -0.033188
1643124121.0000    299452.600000       -54.965490    298188.900000      -174.887100    298391.400000        65.275720      1036.875000       137.331300      1127.133000        16.724730        59.975730         0.012589
1643124122.0000    299397.100000       -64.368510    298117.800000       175.716200    298343.200000        55.880080      1038.733000       127.892500      1127.807000         7.308403        59.974140         0.052414
1643124123.0000    299482.200000       -74.422750    298234.000000       165.658100    298407.000000        45.820560      1038.208000       117.878400      1127.794000        -2.716935        59.972280         0.007782
1643124124.0000    299392.200000       -84.645200    298132.300000       155.435700    298339.000000        35.597740      1038.448000       107.659000      1128.466000       -12.902100        59.971150         0.010757
1643124125.0000    299330.300000       -95.318660    298067.600000       144.761900    298279.200000        24.929200      1038.660000        97.001560      1128.346000       -23.586400        59.968720         0.038223
1643124126.0000    299374.200000      -106.461200    298117.000000       133.613500    298264.600000        13.779740      1038.512000        85.890010      1129.210000       -34.702640        59.969310         0.015106
1643124127.0000    299414.800000      -118.146400    298137.200000       121.935400    298366.500000         2.102217      1036.431000        74.160690      1126.277000       -46.414910        59.967800        -0.009384
1643124128.0000    299453.600000      -129.398900    298192.100000       110.692300    298435.500000        -9.148992      1036.823000        62.849240      1126.127000       -57.742060        59.969720         0.014648
1643124129.0000    299471.100000      -140.773000    298189.700000        99.300180    298374.000000       -20.531970      1036.495000        51.507160      1125.945000       -69.075910        59.967310         0.060883
1643124130.0000    299348.400000      -152.157500    298116.100000        87.923080    298297.400000       -31.916090      1037.898000        40.143160      1127.359000       -80.433880        59.968520         0.028839
1643124131.0000    299267.400000      -163.652400    298028.000000        76.422180    298224.600000       -43.413810      1038.094000        28.589830      1128.111000       -91.976440        59.967830        -0.000458
1643124132.0000    299415.300000      -175.939300    298174.400000        64.139290    298358.400000       -55.697810      1036.968000        16.351920      1126.262000      -104.234400        59.965080         0.013046
1643124133.0000    299395.300000       171.085900    298138.300000        51.161690    298323.800000       -68.672690      1037.034000         3.294115      1127.528000      -117.280100        59.963760         0.015106
1643124134.0000    299351.600000       157.519200    298091.300000        37.591770    298274.300000       -82.239900      1037.896000       -10.193040      1127.605000      -130.773800        59.961530        -0.006866
1643124135.0000    299405.200000       143.222000    298124.500000        23.301570    298345.600000       -96.531610      1037.033000       -24.521540      1126.557000      -145.093500        59.958620        -0.023346
1643124136.0000    299442.400000       128.732900    298148.200000         8.812097    298375.400000      -111.020800      1037.083000       -39.005490      1127.333000      -159.551800        59.961510         0.063629
1643124137.0000    299425.500000       114.722000    298167.100000        -5.196980    298361.800000      -125.034300      1036.935000       -53.005550      1126.979000      -173.604900        59.962170         0.013733
1643124138.0000    299394.000000       101.370200    298128.600000       -18.544830    298342.300000      -138.386100      1036.841000       -66.395220      1126.683000       173.048000        59.963840         0.083771
1643124139.0000    299446.900000        88.576320    298186.000000       -31.339750    298414.700000      -151.177000      1036.855000       -79.179710      1126.659000       160.257400        59.965320         0.048752
1643124140.0000    299441.500000        76.019640    298190.000000       -43.894180    298405.400000      -163.735200      1036.096000       -91.733760      1125.953000       147.700000        59.965680         0.010529
1643124141.0000    299378.100000        64.003620    298107.600000       -55.913640    298347.700000      -175.746900      1037.307000      -103.722100      1126.835000       135.660100        59.966120         0.002289
1643124142.0000    299390.000000        52.244450    298136.400000       -67.670850    298380.800000       172.488200      1035.585000      -115.510200      1125.831000       123.903500        59.967460        -0.003204
1643124143.0000    299412.100000        41.048300    298156.100000       -78.866570    298365.200000       161.296500      1035.998000      -126.682000      1125.482000       112.765300        59.970470         0.027008
1643124144.0000    299386.100000        30.504220    298111.000000       -89.403730    298356.300000       150.758700      1035.146000      -137.249400      1124.717000       102.142200        59.970110        -0.078506
1643124145.0000    299391.200000        20.497620    298109.500000       -99.412610    298375.800000       140.749300      1036.347000      -147.235600      1126.112000        92.185220        59.971200        -0.063858
1643124146.0000    299375.800000        10.831860    298087.100000      -109.069200    298362.500000       131.092100      1037.614000      -156.930400      1126.603000        82.510860        59.972760        -0.027008
1643124147.0000    299413.800000         1.290714    298155.100000      -118.624900    298375.700000       121.538900      1036.920000      -166.401300      1126.157000        72.996940        59.973400         0.040970
1643124148.0000    299449.600000        -8.197819    298154.100000      -128.111600    298397.300000       112.054400      1036.308000      -175.979900      1125.961000        63.468290        59.975230         0.047836
1643124149.0000    299478.000000       -17.239820    298197.300000      -137.156400    298421.100000       103.007600      1035.901000       175.016400      1125.296000        54.426050        59.975660         0.014191
1643124150.0000    299431.200000       -25.751650    298173.100000      -145.670200    298404.300000        94.496680      1035.698000       166.480400      1124.970000        45.903070        59.977340         0.013962
1643124151.0000    299464.100000       -33.267000    298210.500000      -153.188800    298406.700000        86.976580      1036.969000       159.001500      1126.900000        38.390190        59.979770         0.038910
1643124152.0000    299391.600000       -40.194920    298152.000000      -160.118300    298355.800000        80.047030      1036.638000       152.042800      1126.907000        31.425470        59.982170         0.015335
1643124153.0000    299373.000000       -46.593010    298144.300000      -166.515800    298309.800000        73.647620      1036.642000       145.690000      1126.944000        25.115420        59.982180         0.007553
1643124154.0000    299469.200000       -52.585620    298184.900000      -172.509700    298388.800000        67.662920      1036.865000       139.656800      1126.572000        19.068800        59.986470         0.018768
1643124155.0000    299467.200000       -57.617300    298195.700000      -177.538000    298419.700000        62.628540      1037.581000       134.638500      1127.177000        14.052610        59.988640         0.092926
1643124156.0000    299418.200000       -61.913910    298151.600000       178.167700    298366.900000        58.330310      1036.282000       130.329300      1125.756000         9.749435        59.988520        -0.047836
1643124157.0000    299374.500000       -65.695480    298107.300000       174.388700    298353.900000        54.551860      1037.595000       126.575100      1127.397000         5.994320        59.987240        -0.040741
1643124158.0000    299505.400000       -69.208720    298234.300000       170.870100    298449.100000        51.039930      1035.268000       123.017600      1125.103000         2.414434        59.992680         0.009155
1643124159.0000    299461.800000       -71.610920    298194.400000       168.465900    298410.400000        48.630740      1035.629000       120.661400      1125.371000         0.064397        59.994170         0.029526
1643124160.0000    299472.400000       -73.363070    298202.900000       166.719200    298426.200000        46.884860      1035.350000       118.881400      1125.001000        -1.705044        59.996130         0.023575
1643124161.0000    299424.600000       -74.314660    298171.400000       165.768200    298380.800000        45.929440      1035.383000       117.966400      1124.810000        -2.628838        59.996550        -0.040970
1643124162.0000    299439.500000       -74.816470    298201.900000       165.262600    298373.600000        45.425320      1034.764000       117.407900      1124.596000        -3.160048        59.998690         0.010300
1643124163.0000    299373.800000       -74.811100    298095.300000       165.267700    298325.100000        45.431770      1035.100000       117.432400      1124.708000        -3.161950        60.000580        -0.012131
1643124164.0000    299510.900000       -74.900690    298252.200000       165.178000    298451.400000        45.348010      1035.653000       117.385400      1125.246000        -3.209728        60.000340        -0.004578
1643124165.0000    299455.000000       -74.949420    298170.900000       165.124100    298361.300000        45.293570      1036.024000       117.347900      1126.509000        -3.243271        60.000590         0.072556
1643124166.0000    299363.400000       -75.250140    298089.100000       164.832400    298322.200000        44.993930      1036.057000       116.988700      1125.695000        -3.615728        59.998700         0.014191
1643124167.0000    299448.800000       -76.191540    298138.400000       163.884000    298362.900000        44.055810      1035.733000       116.076200      1125.509000        -4.514972        59.995250        -0.013962
1643124168.0000    299458.700000       -77.570010    298146.400000       162.512200    298382.000000        42.678640      1034.909000       114.710200      1124.889000        -5.878919        59.995840         0.015564
1643124169.0000    299437.100000       -79.447040    298172.400000       160.634900    298383.600000        40.797650      1033.833000       112.825900      1122.980000        -7.761971        59.993020         0.005951
1643124170.0000    299445.800000       -82.018330    298159.100000       158.065000    298378.300000        38.229840      1034.778000       110.195200      1124.161000       -10.376290        59.991720        -0.059738
1643124171.0000    299455.700000       -85.154300    298157.800000       154.922900    298389.400000        35.094120      1035.898000       107.120900      1125.442000       -13.489310        59.989150        -0.046692
1643124172.0000    299450.800000       -89.070850    298143.200000       151.008100    298381.800000        31.180140      1035.178000       103.127000      1124.123000       -17.481930        59.988800         0.040054
1643124173.0000    299455.200000       -89.660960    298182.500000       150.420700    298405.900000        30.585720      1034.768000       102.596300      1123.999000       -18.015160        59.987460        -0.026321          *
1643124174.0000    299455.200000       -89.660960    298182.500000       150.420700    298405.900000        30.585720      1034.768000       102.596300      1123.999000       -18.015160        59.987460        -0.026321          *
1643124175.0000    299455.200000       -89.660960    298182.500000       150.420700    298405.900000        30.585720      1034.768000       102.596300      1123.999000       -18.015160        59.987460        -0.026321          *
1643124176.0000    299455.200000       -89.660960    298182.500000       150.420700    298405.900000        30.585720      1034.768000       102.596300      1123.999000       -18.015160        59.987460        -0.026321          *
1643124177.0000    299455.200000       -89.660960    298182.500000       150.420700    298405.900000        30.585720      1034.768000       102.596300      1123.999000       -18.015160        59.987460        -0.026321          *
1643124178.0000    299455.200000       -89.660960    298182.500000       150.420700    298405.900000        30.585720      1034.768000       102.596300      1123.999000       -18.015160        59.987460        -0.026321          *
1643124179.0000    299455.200000       -89.660960    298182.500000       150.420700    298405.900000        30.585720      1034.768000       102.596300      1123.999000       -18.015160        59.987460        -0.026321          *
