Terminal: LT 765  IVAIPORA FUR - F.IGUACU 60HZ C2
Tensão base: 765 kV
SOC inicial: 1643124120
SOC final: 1643124179
Taxa: 1 fasores/s
Total de frames faltantes: - 

Tempo_(SOC)           VA_mod_(V)     VA_ang_(graus)     VB_mod_(V)     VB_ang_(graus)     VC_mod_(V)     VC_ang_(graus)     IA_mod_(A)     IA_ang_(graus)     IB_mod_(A)     IB_ang_(graus)     IC_mod_(A)     IC_ang_(graus)     Frequência        Delta_Freq     Faltante
1643124120.0000      2535.515000      -115.783800      5331.534000        -0.027209      4478.917000        81.343110         1.616440        71.565050         1.143456      -116.611200         1.439317       -45.258170        60.000000         0.000000
1643124121.0000      2533.564000      -125.117800      5325.937000        -9.169157      4481.243000        72.176870         1.616440        71.565050         1.358050      -138.832600         1.827299       -55.980570        60.000000         0.000000
1643124122.0000      2515.795000      -134.656100      5327.769000       -18.669570      4485.401000        62.507900         1.423967        71.086720         1.142996      -153.435000         1.659626       -67.517570        60.000000         0.000000
1643124123.0000      2530.364000      -144.613700      5336.682000       -28.732960      4477.920000        52.576330         1.307854        51.414900         1.142996      -153.435000         1.616440       -71.565050        60.000000         0.000000
1643124124.0000      2538.089000      -154.694500      5331.125000       -38.746060      4475.849000        42.520730         1.445788        45.000000         1.134153      -154.342800         1.533525       -90.390470        60.000000         0.000000
1643124125.0000      2540.405000      -165.508600      5324.785000       -49.572620      4481.288000        31.698840         1.632223        18.250370         1.022326      -180.000000         1.533490       -90.000000        60.000000         0.000000
1643124126.0000      2536.078000      -176.787000      5322.320000       -60.712300      4470.965000        20.407120         1.616440        18.434950         1.431427      -178.901100         1.635033      -110.299000        60.000000         0.000000
1643124127.0000      2535.041000       171.683100      5322.222000       -72.344340      4478.666000         9.013968         1.533579         0.617752         1.142996       153.435000         1.616440      -108.435000        60.000000         0.000000
1643124128.0000      2541.330000       160.482800      5336.429000       -83.633670      4482.137000        -2.388173         1.533490         0.000000         1.142996       153.435000         1.848714      -123.572600        60.000000         0.000000
1643124129.0000      2535.812000       149.118900      5330.771000       -95.054050      4476.096000       -13.719680         1.616440       -18.434950         1.150170       152.728800         1.445788      -135.000000        60.000000         0.000000
1643124130.0000      2545.055000       137.708500      5329.118000      -106.312700      4478.271000       -25.120840         1.637701       -20.549790         1.142996       116.565000         1.877021      -144.783700        60.000000         0.000000
1643124131.0000      2526.009000       126.090100      5327.359000      -118.004400      4465.055000       -36.628680         1.445788       -45.000000         1.142996       116.565000         1.616440      -161.565000        60.000000         0.000000
1643124132.0000      2525.119000       113.666400      5324.509000      -130.362900      4483.416000       -49.048860         1.472305       -46.088600         1.097979       111.393300         1.533490      -180.000000        60.000000         0.000000
1643124133.0000      2535.503000       100.941400      5325.309000      -143.213200      4483.207000       -61.831020         1.616440       -71.565050         1.259549        90.000000         1.533490      -180.000000        60.000000         0.000000
1643124134.0000      2533.807000        87.328360      5319.354000      -156.792700      4466.509000       -75.511670         1.638216       -69.402200         1.465545        69.586840         1.616440       161.565000        60.000000         0.000000
1643124135.0000      2527.059000        73.059080      5324.668000      -171.210200      4479.931000       -89.773890         1.533490       -90.000000         1.142996        63.434940         1.843025       146.309900        60.000000         0.000000
1643124136.0000      2538.258000        58.548180      5328.369000       174.415700      4470.163000      -104.322100         1.616440      -108.435000         1.387184        39.018420         1.608000       129.477500        60.000000         0.000000
1643124137.0000      2533.347000        44.743020      5322.195000       160.388900      4465.040000      -118.219200         1.201453      -124.961100         1.142996        26.565050         1.659734       112.491400        60.000000         0.000000
1643124138.0000      2536.501000        31.102210      5316.473000       146.990900      4478.375000      -131.745200         1.445788      -135.000000         1.142996        26.565050         1.616440       108.435000        60.000000         0.000000
1643124139.0000      2530.728000        18.492410      5326.282000       134.049100      4476.771000      -144.517400         1.497823      -134.186500         0.965174         0.000000         1.533490        90.000000        60.000000         0.000000
1643124140.0000      2530.295000         5.771715      5332.648000       121.674700      4476.834000      -156.967100         1.616440      -161.565000         1.022326         0.000000         1.631182        70.069980        60.000000         0.000000
1643124141.0000      2529.824000        -6.249539      5327.510000       109.569300      4470.718000      -169.184200         1.535660      -176.953600         1.170982       -25.882380         1.616440        71.565050        60.000000         0.000000
1643124142.0000      2527.111000       -17.903300      5323.198000        97.832440      4472.582000       179.290100         1.533490      -180.000000         1.142996       -26.565050         1.329875        53.817480        60.000000         0.000000
1643124143.0000      2535.112000       -29.059230      5325.340000        86.808980      4478.270000       168.103600         1.616440       161.565000         1.147963       -27.056670         1.445788        45.000000        60.000000         0.000000
1643124144.0000      2533.529000       -39.643260      5326.295000        76.126320      4475.764000       157.510700         1.616440       161.565000         1.292378       -52.283080         1.856883        33.405460        60.000000         0.000000
1643124145.0000      2529.342000       -49.840690      5320.189000        65.934840      4468.808000       147.263200         1.451864       146.382300         1.142996       -63.434940         1.616440        18.434950        60.000000         0.000000
1643124146.0000      2532.780000       -59.144620      5325.227000        56.536660      4463.881000       137.706900         1.445788       135.000000         1.142996       -63.434940         1.621197        18.932840        60.000000         0.000000
1643124147.0000      2533.596000       -69.220990      5322.020000        46.800690      4465.902000       128.119800         1.196911       122.836800         0.995049       -89.134120         1.533490         0.000000        60.000000         0.000000
1643124148.0000      2541.463000       -78.406510      5328.008000        37.238770      4473.226000       118.667400         1.651998       108.024400         1.022326       -90.000000         1.533490         0.000000        60.000000         0.000000
1643124149.0000      2530.433000       -87.581460      5329.657000        28.363510      4473.996000       109.476000         1.616440       108.435000         1.037367      -103.502600         1.616440       -18.434950        60.000000         0.000000
1643124150.0000      2530.817000       -95.922100      5328.538000        19.878880      4467.784000       101.167200         1.533513        89.682950         1.142996      -116.565000         1.616440       -18.434950        60.000000         0.000000
1643124151.0000      2543.277000      -103.460400      5327.208000        12.260720      4469.685000        93.573070         1.533490        90.000000         1.142996      -116.565000         1.576276       -28.063280        60.000000         0.000000
1643124152.0000      2535.868000      -110.649700      5331.156000         5.234916      4470.171000        86.570560         1.534336        91.902750         1.142996      -116.565000         1.701050       -36.941350        60.000000         0.000000
1643124153.0000      2534.721000      -116.987000      5325.705000        -1.173119      4465.742000        80.141780         1.616440        71.565050         1.126738      -114.860700         1.445788       -45.000000        60.000000         0.000000
1643124154.0000      2538.586000      -122.550200      5324.167000        -6.915092      4473.916000        74.376810         1.616440        71.565050         1.433838      -134.520500         1.658649       -51.949120        60.000000         0.000000
1643124155.0000      2538.849000      -127.526900      5326.357000       -11.964100      4470.611000        69.460240         1.515685        70.290650         1.145377      -153.197700         1.617676       -50.804200        60.000000         0.000000
1643124156.0000      2535.064000      -131.775100      5332.281000       -16.077510      4471.494000        65.286970         1.406743        68.692920         1.142996      -153.435000         1.813177       -57.752080        60.000000         0.000000
1643124157.0000      2540.276000      -135.875000      5333.395000       -20.131590      4481.286000        61.223250         1.603841        64.401920         1.142996      -153.435000         1.611250       -72.127060        60.000000         0.000000
1643124158.0000      2541.085000      -139.242200      5323.479000       -23.613770      4468.033000        57.752170         1.470168        43.424800         1.142996      -153.435000         1.616440       -71.565050        60.000000         0.000000
1643124159.0000      2533.091000      -141.599000      5327.209000       -25.877720      4470.189000        55.505860         1.445788        45.000000         1.142996      -153.435000         1.616440       -71.565050        60.000000         0.000000
1643124160.0000      2531.667000      -143.638600      5333.190000       -27.630430      4466.015000        53.704440         1.462382        44.097640         1.142996      -153.435000         1.616440       -71.565050        60.000000         0.000000
1643124161.0000      2537.310000      -144.227700      5332.146000       -28.653220      4466.251000        52.657410         1.417336        46.162040         1.142996      -153.435000         1.616440       -71.565050        60.000000         0.000000
1643124162.0000      2536.665000      -145.114300      5329.191000       -29.233570      4469.445000        52.017970         1.445788        45.000000         1.142996      -153.435000         1.616440       -71.565050        60.000000         0.000000
1643124163.0000      2530.896000      -144.861800      5326.856000       -29.188660      4465.877000        52.118940         1.445788        45.000000         1.142996      -153.435000         1.616440       -71.565050        60.000000         0.000000
1643124164.0000      2537.608000      -145.119500      5330.305000       -29.273510      4472.674000        51.974780         1.445788        45.000000         1.142996      -153.435000         1.616440       -71.565050        60.000000         0.000000
1643124165.0000      2529.902000      -145.105400      5320.346000       -29.393120      4470.628000        51.821220         1.445788        45.000000         1.142996      -153.435000         1.616440       -71.565050        60.000000         0.000000
1643124166.0000      2533.771000      -145.476200      5320.005000       -29.706510      4466.038000        51.565680         1.445788        45.000000         1.170982      -154.117600         1.616440       -71.565050        60.000000         0.000000
1643124167.0000      2537.896000      -146.392600      5313.621000       -30.715480      4466.385000        50.713350         1.445788        45.000000         1.134800      -153.227800         1.616440       -71.565050        60.000000         0.000000
1643124168.0000      2534.920000      -147.513400      5321.719000       -31.734680      4464.106000        49.694860         1.445788        45.000000         1.142996      -153.435000         1.616440       -71.565050        60.000000         0.000000
1643124169.0000      2535.817000      -149.461300      5319.164000       -33.642800      4476.536000        47.683270         1.445788        45.000000         1.158676      -153.822000         1.616440       -71.565050        60.000000         0.000000
1643124170.0000      2530.922000      -152.056500      5323.934000       -36.244370      4469.648000        45.100240         1.445788        45.000000         1.158676      -153.822000         1.574586       -76.880910        60.000000         0.000000
1643124171.0000      2524.130000      -155.392600      5327.525000       -39.576720      4471.540000        41.730550         1.327335        39.627290         1.481726      -159.819500         1.533490       -90.000000        60.000000         0.000000
1643124172.0000      2529.112000      -159.232600      5327.692000       -43.282410      4470.146000        37.877970         1.421773        45.976140         0.980679      -180.000000         1.533490       -90.000000        60.000000         0.000000
1643124173.0000      2526.012000      -164.009600      5325.787000       -48.188820      4468.173000        33.043930         1.306453        23.032950         1.022326      -180.000000         1.533490       -90.000000        60.000000         0.000000
1643124174.0000      2519.092000      -169.857100      5320.380000       -54.151890      4480.614000        27.177520         1.616440        18.434950         0.953225      -180.000000         1.537583       -94.181780        60.000000         0.000000
1643124175.0000      2521.683000      -176.707500      5318.107000       -60.668310      4475.979000        20.543440         1.616440        18.434950         1.022326      -180.000000         1.616440      -108.435000        60.000000         0.000000
1643124176.0000      2528.665000       175.965500      5319.159000       -68.139590      4470.372000        13.147590         1.616440        18.434950         1.199071       154.767100         1.616440      -108.435000        60.000000         0.000000
1643124177.0000      2534.838000       168.241500      5328.718000       -75.974880      4477.967000         5.349003         1.533490         0.000000         1.142996       153.435000         1.616825      -108.475900        60.000000         0.000000
1643124178.0000      2524.338000       160.039000      5315.527000       -84.007500      4473.860000        -2.781287         1.533524        -0.384647         1.142996       153.435000         1.633101      -130.460700        60.000000         0.000000
1643124179.0000      2522.747000       151.105600      5323.843000       -92.784180      4474.517000       -11.504610         1.616440       -18.434950         1.328869       140.292900         1.445788      -135.000000        60.000000         0.000000
