Terminal: LT 765  F.IGUACU 60HZ - IVAIPORA FUR C2
Tensão base: 765 kV
SOC inicial: 1643124120
SOC final: 1643124179
Taxa: 1 fasores/s
Total de frames faltantes: - 

Tempo_(SOC)           VA_mod_(V)     VA_ang_(graus)     VB_mod_(V)     VB_ang_(graus)     VC_mod_(V)     VC_ang_(graus)     IA_mod_(A)     IA_ang_(graus)     IB_mod_(A)     IB_ang_(graus)     IC_mod_(A)     IC_ang_(graus)     Frequência        Delta_Freq     Faltante
1643124120.0000      2581.841000      -120.604600      4948.500000        20.595720      5405.824000       103.803900       247.266400       -67.243000       243.237400        52.402760       247.688800       172.952600        60.000000         0.000000
1643124121.0000      2575.348000      -129.772200      4953.452000        11.591280      5404.865000        94.705920       247.372400       -76.370640       243.098600        43.288040       247.686100       163.842800        60.000000         0.000000
1643124122.0000      2577.118000      -139.074000      4951.530000         2.140609      5398.864000        85.265460       247.049500       -85.776890       243.035500        33.840770       247.853300       154.481700        60.000000         0.000000
1643124123.0000      2575.707000      -149.104900      4957.898000        -7.863157      5406.656000        75.336010       247.106600       -95.823960       242.963300        23.898240       247.657300       144.425500        60.000000         0.000000
1643124124.0000      2576.510000      -159.159700      4946.777000       -17.937500      5401.133000        65.248680       247.390500      -105.989600       243.100800        13.673340       247.883600       134.233500        60.000000         0.000000
1643124125.0000      2572.408000      -169.900100      4952.895000       -28.686320      5393.421000        54.425180       247.160900      -116.622900       243.122300         2.964260       247.746400       123.532400        60.000000         0.000000
1643124126.0000      2577.148000       178.852800      4952.509000       -40.046090      5398.995000        43.184760       247.187300      -127.912900       243.261600        -8.239246       247.745300       112.309000        60.000000         0.000000
1643124127.0000      2579.365000       167.297000      4954.994000       -51.504860      5397.985000        31.625850       247.210300      -139.516300       243.181400       -19.812060       247.801600       100.693500        60.000000         0.000000
1643124128.0000      2575.762000       156.140800      4955.333000       -62.704780      5400.026000        20.421010       247.430500      -150.685700       243.006800       -30.999560       247.921100        89.515520        60.000000         0.000000
1643124129.0000      2576.156000       144.547700      4953.506000       -74.245800      5401.367000         8.885537       247.199900      -162.236300       243.166700       -42.540790       247.789400        77.927120        60.000000         0.000000
1643124130.0000      2575.195000       133.144900      4955.075000       -85.651830      5402.612000        -2.441678       247.471500      -173.497400       242.987900       -53.800690       247.857800        66.669570        60.000000         0.000000
1643124131.0000      2576.021000       121.585200      4952.739000       -97.225490      5403.842000       -14.050050       247.213300       174.879300       242.897100       -65.460200       247.705100        55.039250        60.000000         0.000000
1643124132.0000      2575.183000       109.207800      4951.885000      -109.540500      5402.674000       -26.345350       247.072500       162.572600       242.809700       -77.785700       247.690600        42.784330        60.000000         0.000000
1643124133.0000      2574.050000        96.265970      4951.043000      -122.538800      5403.104000       -39.313880       247.096800       149.648800       243.261400       -90.697530       247.861300        29.832190        60.000000         0.000000
1643124134.0000      2572.475000        82.846960      4951.596000      -135.854100      5398.337000       -52.800900       247.218700       136.091300       242.815300      -104.246400       247.627000        16.289930        60.000000         0.000000
1643124135.0000      2575.012000        68.497420      4955.793000      -150.213700      5398.656000       -67.046390       247.154700       121.859500       242.986600      -118.538700       247.766900         1.977117        60.000000         0.000000
1643124136.0000      2571.881000        54.020210      4951.590000      -164.804600      5399.659000       -81.556740       247.245200       107.370300       243.064700      -132.977500       247.833500       -12.542230        60.000000         0.000000
1643124137.0000      2576.095000        40.138900      4953.877000      -178.816300      5398.444000       -95.610090       247.241200        93.293640       243.267600      -147.128900       247.787500       -26.521210        60.000000         0.000000
1643124138.0000      2576.939000        26.589500      4957.328000       167.765100      5402.348000      -109.007700       247.528600        79.811590       243.268100      -160.547700       247.966900       -39.979450        60.000000         0.000000
1643124139.0000      2579.458000        13.881370      4954.335000       154.993600      5403.923000      -121.848400       247.392800        67.125250       243.200700      -173.255300       247.885400       -52.701540        60.000000         0.000000
1643124140.0000      2574.056000         1.150226      4953.364000       142.354400      5401.249000      -134.433200       247.215800        54.510610       243.037800       174.164400       248.098800       -65.280470        60.000000         0.000000
1643124141.0000      2577.873000       -10.827900      4953.460000       130.277600      5400.067000      -146.457400       247.247500        42.535210       242.922300       162.163700       247.844400       -77.350650        60.000000         0.000000
1643124142.0000      2571.626000       -22.548570      4953.937000       118.622600      5403.301000      -158.117800       247.325200        30.713330       243.285800       150.355700       247.924900       -89.136080        60.000000         0.000000
1643124143.0000      2578.336000       -33.745980      4951.492000       107.375100      5413.048000      -169.297700       247.316600        19.541390       243.359000       139.174800       247.809400      -100.233600        60.000000         0.000000
1643124144.0000      2580.010000       -44.243750      4950.816000        97.100900      5404.808000      -179.832400       247.403600         9.076973       243.190000       128.709600       248.112800      -110.775100        60.000000         0.000000
1643124145.0000      2577.885000       -54.279610      4954.237000        86.922860      5401.080000       170.046900       247.497600        -1.068668       243.165800       118.543600       247.760700      -120.900700        60.000000         0.000000
1643124146.0000      2573.433000       -63.927950      4957.283000        77.067230      5396.468000       160.343000       247.326800       -10.707790       243.253000       108.879300       247.705400      -130.525700        60.000000         0.000000
1643124147.0000      2577.967000       -73.488930      4953.625000        67.735600      5398.012000       150.864500       247.351600       -20.242300       242.929000        99.375860       247.660200      -140.134800        60.000000         0.000000
1643124148.0000      2577.935000       -82.981700      4954.324000        58.265550      5401.181000       141.386000       247.295300       -29.657940       242.818100        89.948130       247.906300      -149.538100        60.000000         0.000000
1643124149.0000      2576.704000       -91.954240      4952.231000        49.158570      5396.777000       132.322100       247.097100       -38.715380       243.255100        80.920100       247.879600      -158.594500        60.000000         0.000000
1643124150.0000      2578.332000      -100.501500      4958.686000        40.625950      5395.892000       123.762200       247.463800       -47.215920       243.117300        72.425740       248.097300      -167.027900        60.000000         0.000000
1643124151.0000      2577.524000      -108.049000      4956.458000        33.043400      5396.891000       116.265300       247.347000       -54.752670       243.243400        64.898910       247.889800      -174.622400        60.000000         0.000000
1643124152.0000      2580.735000      -114.972300      4952.893000        26.128550      5400.424000       109.348800       247.496200       -61.729830       243.114900        57.917770       248.003400       178.446700        60.000000         0.000000
1643124153.0000      2575.438000      -121.442800      4956.826000        19.637610      5397.910000       102.848900       247.291300       -68.217250       243.174000        51.406040       247.750400       172.034200        60.000000         0.000000
1643124154.0000      2574.209000      -127.243800      4953.182000        13.977000      5397.373000        97.022390       247.232000       -74.001210       243.141100        45.656970       247.923500       166.216800        60.000000         0.000000
1643124155.0000      2577.548000      -132.234200      4955.987000         8.895614      5399.779000        92.054220       247.267500       -79.100300       243.040800        40.523780       248.020200       161.087500        60.000000         0.000000
1643124156.0000      2580.233000      -136.575400      4954.947000         4.605347      5404.526000        87.823370       247.568900       -83.272610       243.140900        36.351230       247.937500       156.905200        60.000000         0.000000
1643124157.0000      2577.583000      -140.504700      4954.098000         0.821438      5404.673000        84.003790       247.192100       -87.166450       242.941900        32.476310       247.802600       153.013800        60.000000         0.000000
1643124158.0000      2581.293000      -143.852300      4955.180000        -2.674291      5403.683000        80.500470       247.413900       -90.582180       242.947700        29.035840       247.834400       149.546800        60.000000         0.000000
1643124159.0000      2578.469000      -146.255800      4953.698000        -5.118307      5402.003000        78.136940       247.236100       -93.032030       242.999600        26.612960       247.760000       147.165200        60.000000         0.000000
1643124160.0000      2581.759000      -148.098400      4956.436000        -6.904657      5402.958000        76.271820       247.229900       -94.755520       243.591600        24.956740       247.985900       145.467300        60.000000         0.000000
1643124161.0000      2580.104000      -148.929200      4959.200000        -7.913197      5400.057000        75.361890       247.087200       -95.700230       242.832800        23.970240       247.747700       144.408600        60.000000         0.000000
1643124162.0000      2577.338000      -149.491700      4956.478000        -8.378057      5394.592000        74.823450       247.372900       -96.288740       242.890900        23.428960       247.735200       143.981300        60.000000         0.000000
1643124163.0000      2575.857000      -149.645400      4959.476000        -8.478980      5393.195000        74.699580       246.872700       -96.422100       242.624200        23.271750       247.628400       143.814500        60.000000         0.000000
1643124164.0000      2575.700000      -149.578800      4953.740000        -8.456127      5400.944000        74.705420       246.865900       -96.326980       242.701100        23.325350       247.595800       143.824800        60.000000         0.000000
1643124165.0000      2572.134000      -149.536800      4955.722000        -8.354475      5399.994000        74.752650       247.127900       -96.293710       242.701100        23.325350       247.623300       143.816100        60.000000         0.000000
1643124166.0000      2574.447000      -149.984600      4949.811000        -8.836159      5394.052000        74.362750       247.081400       -96.774140       242.568700        22.944930       247.684100       143.398400        60.000000         0.000000
1643124167.0000      2578.441000      -150.860100      4945.797000        -9.740023      5397.654000        73.472420       247.089800       -97.728560       242.900200        21.868580       247.580600       142.456600        60.000000         0.000000
1643124168.0000      2572.196000      -152.048000      4951.729000       -10.861690      5399.853000        72.232910       247.322600       -98.915850       242.680700        20.739720       247.634900       141.289300        60.000000         0.000000
1643124169.0000      2573.401000      -154.019600      4951.337000       -12.870950      5399.594000        70.294380       246.909000      -100.846700       242.967200        18.886410       247.521400       139.423500        60.000000         0.000000
1643124170.0000      2570.533000      -156.570700      4949.090000       -15.449480      5402.009000        67.663330       246.934000      -103.392700       242.771900        16.315380       247.363100       136.841100        60.000000         0.000000
1643124171.0000      2571.549000      -159.844400      4951.146000       -18.710250      5398.743000        64.455080       247.134300      -106.584700       243.044400        13.106280       247.571500       133.598700        60.000000         0.000000
1643124172.0000      2574.855000      -163.677800      4950.021000       -22.594670      5397.322000        60.564430       247.155000      -110.473800       242.809800         9.163469       247.413200       129.657200        60.000000         0.000000
1643124173.0000      2571.642000      -168.512100      4950.960000       -27.417670      5402.670000        55.736300       247.185500      -115.253300       242.646500         4.350605       247.475700       124.883700        60.000000         0.000000
1643124174.0000      2565.739000      -174.536600      4952.687000       -33.244200      5403.481000        49.871860       246.863700      -121.233500       242.889800        -1.552002       247.676600       118.995400        60.000000         0.000000
1643124175.0000      2569.959000       178.898900      4947.896000       -39.775770      5399.050000        43.311610       247.312300      -127.789100       242.860900        -8.111283       247.632800       112.385400        60.000000         0.000000
1643124176.0000      2573.446000       171.265100      4945.293000       -47.335840      5398.158000        35.822780       247.181900      -135.302200       242.547900       -15.627100       247.550500       104.902000        60.000000         0.000000
1643124177.0000      2571.756000       163.854800      4951.034000       -55.099320      5402.882000        28.062420       247.076300      -143.026200       242.913800       -23.384000       247.814000        97.156750        60.000000         0.000000
1643124178.0000      2571.540000       155.728000      4952.703000       -63.110950      5398.523000        20.013920       247.178600      -151.030900       242.894700       -31.429780       247.893000        89.188090        60.000000         0.000000
1643124179.0000      2575.531000       146.903800      4948.672000       -71.896150      5398.602000        11.237220       247.212400      -159.821200       242.949600       -40.190100       247.909000        80.370570        60.000000         0.000000
